File: RAMAN_data/12022024_r1/black fibre14.CSV
9.931763e+01,0.000000e+00
1.108884e+02,0.000000e+00
1.224592e+02,0.000000e+00
1.340300e+02,0.000000e+00
1.456008e+02,0.000000e+00
1.571716e+02,0.000000e+00
1.687424e+02,0.000000e+00
1.803132e+02,0.000000e+00
1.918840e+02,0.000000e+00
2.034548e+02,2.371750e+03
2.150256e+02,2.366973e+03
2.265964e+02,2.376635e+03
2.381673e+02,2.368427e+03
2.497381e+02,2.365823e+03
2.613088e+02,2.342050e+03
2.728796e+02,2.354760e+03
2.844504e+02,2.354903e+03
2.960212e+02,2.366379e+03
3.075920e+02,2.390004e+03
3.191628e+02,2.406815e+03
3.307336e+02,2.420121e+03
3.423044e+02,2.410602e+03
3.538752e+02,2.387836e+03
3.654461e+02,2.384308e+03
3.770169e+02,2.422333e+03
3.885877e+02,2.371623e+03
4.001585e+02,2.367353e+03
4.117293e+02,2.351820e+03
4.233001e+02,2.337114e+03
4.348709e+02,2.358480e+03
4.464417e+02,2.339857e+03
4.580125e+02,2.348648e+03
4.695833e+02,2.362396e+03
4.811541e+02,2.358653e+03
4.927249e+02,2.347346e+03
5.042957e+02,2.332381e+03
5.158665e+02,2.344422e+03
5.274373e+02,2.323412e+03
5.390081e+02,2.313751e+03
5.505789e+02,2.284016e+03
5.621497e+02,2.266920e+03
5.737205e+02,2.262453e+03
5.852913e+02,2.268859e+03
5.968621e+02,2.257207e+03
6.084329e+02,2.267691e+03
6.200037e+02,2.249424e+03
6.315745e+02,2.284621e+03
6.431453e+02,2.260647e+03
6.547161e+02,2.255239e+03
6.662869e+02,2.231990e+03
6.778577e+02,2.231031e+03
6.894285e+02,2.196740e+03
7.009993e+02,2.183953e+03
7.125701e+02,2.170408e+03
7.241409e+02,2.188466e+03
7.357117e+02,2.181240e+03
7.472825e+02,2.167168e+03
7.588533e+02,2.159757e+03
7.704241e+02,2.157192e+03
7.819949e+02,2.155761e+03
7.935657e+02,2.161006e+03
8.051365e+02,2.131667e+03
8.167073e+02,2.138238e+03
8.282781e+02,2.132370e+03
8.398489e+02,2.083439e+03
8.514197e+02,2.086205e+03
8.629905e+02,2.081133e+03
8.745613e+02,2.058542e+03
8.861321e+02,2.063890e+03
8.977029e+02,2.031030e+03
9.092737e+02,2.056250e+03
9.208445e+02,2.036438e+03
9.324153e+02,2.045988e+03
9.439861e+02,2.028427e+03
9.555569e+02,2.004010e+03
9.671277e+02,2.000742e+03
9.786985e+02,1.992782e+03
9.902693e+02,1.965083e+03
1.001840e+03,1.950779e+03
1.013411e+03,1.952114e+03
1.024982e+03,1.941393e+03
1.036552e+03,1.952642e+03
1.048123e+03,1.937910e+03
1.059694e+03,1.955658e+03
1.071265e+03,1.967186e+03
1.082836e+03,1.968264e+03
1.094406e+03,1.998757e+03
1.105977e+03,1.977699e+03
1.117548e+03,1.965063e+03
1.129119e+03,1.939228e+03
1.140690e+03,1.948748e+03
1.152261e+03,1.965159e+03
1.163831e+03,1.969916e+03
1.175402e+03,1.914086e+03
1.186973e+03,1.883578e+03
1.198544e+03,1.900036e+03
1.210115e+03,1.882440e+03
1.221685e+03,1.855675e+03
1.233256e+03,1.845234e+03
1.244827e+03,1.844335e+03
1.256398e+03,1.854142e+03
1.267969e+03,1.838514e+03
1.279539e+03,1.852769e+03
1.291110e+03,1.856798e+03
1.302681e+03,1.857537e+03
1.314252e+03,1.886556e+03
1.325823e+03,1.894816e+03
1.337393e+03,1.878266e+03
1.348964e+03,1.828820e+03
1.360535e+03,1.821855e+03
1.372106e+03,1.803838e+03
1.383677e+03,1.786968e+03
1.395247e+03,1.764647e+03
1.406818e+03,1.758740e+03
1.418389e+03,1.761581e+03
1.429960e+03,1.754287e+03
1.441531e+03,1.744492e+03
1.453101e+03,1.724860e+03
1.464672e+03,1.710683e+03
1.476243e+03,1.700719e+03
1.487814e+03,1.701656e+03
1.499385e+03,1.683452e+03
1.510955e+03,1.669654e+03
1.522526e+03,1.670049e+03
1.534097e+03,1.640046e+03
1.545668e+03,1.638624e+03
1.557239e+03,1.648905e+03
1.568809e+03,1.660062e+03
1.580380e+03,1.677283e+03
1.591951e+03,1.648119e+03
1.603522e+03,1.645315e+03
1.615093e+03,1.639583e+03
1.626663e+03,1.581899e+03
1.638234e+03,1.587211e+03
1.649805e+03,1.568200e+03
1.661376e+03,1.554252e+03
1.672947e+03,1.552948e+03
1.684517e+03,1.538795e+03
1.696088e+03,1.515598e+03
1.707659e+03,1.507917e+03
1.719230e+03,1.515267e+03
1.730801e+03,1.500102e+03
1.742371e+03,1.488642e+03
1.753942e+03,1.478331e+03
1.765513e+03,1.451012e+03
1.777084e+03,1.460563e+03
1.788655e+03,1.438390e+03
1.800225e+03,1.435376e+03
1.811796e+03,1.429388e+03
1.823367e+03,1.427993e+03
1.834938e+03,1.404437e+03
1.846509e+03,1.390885e+03
1.858079e+03,1.370147e+03
1.869650e+03,1.360513e+03
1.881221e+03,1.363638e+03
1.892792e+03,1.350400e+03
1.904363e+03,1.337214e+03
1.915933e+03,1.321303e+03
1.927504e+03,1.318148e+03
1.939075e+03,1.293271e+03
1.950646e+03,1.279832e+03
1.962217e+03,1.276212e+03
1.973787e+03,1.249488e+03
1.985358e+03,1.259695e+03
1.996929e+03,1.250147e+03
2.008500e+03,1.226647e+03
2.020071e+03,1.207150e+03
2.031641e+03,1.212953e+03
2.043212e+03,1.198005e+03
2.054783e+03,1.183127e+03
2.066354e+03,1.180262e+03
2.077925e+03,1.154634e+03
2.089496e+03,1.144958e+03
2.101066e+03,1.142876e+03
2.112637e+03,1.116065e+03
2.124208e+03,1.122508e+03
2.135779e+03,1.117018e+03
2.147350e+03,1.092763e+03
2.158920e+03,1.062044e+03
2.170491e+03,1.073073e+03
2.182062e+03,1.059762e+03
2.193633e+03,1.053253e+03
2.205204e+03,1.034988e+03
2.216774e+03,1.032266e+03
2.228345e+03,1.012477e+03
2.239916e+03,1.009680e+03
2.251487e+03,1.006952e+03
2.263058e+03,9.942201e+02
2.274628e+03,9.711668e+02
2.286199e+03,9.570704e+02
2.297770e+03,9.610344e+02
2.309341e+03,9.429192e+02
2.320912e+03,9.414344e+02
2.332482e+03,9.245134e+02
2.344053e+03,9.246921e+02
2.355624e+03,9.186376e+02
2.367195e+03,9.093613e+02
2.378766e+03,8.989407e+02
2.390336e+03,8.825731e+02
2.401907e+03,8.737604e+02
2.413478e+03,8.608756e+02
2.425049e+03,8.461650e+02
2.436620e+03,8.524397e+02
2.448190e+03,8.396844e+02
2.459761e+03,8.174424e+02
2.471332e+03,8.211481e+02
2.482903e+03,8.132999e+02
2.494474e+03,8.022214e+02
2.506044e+03,8.272951e+02
2.517615e+03,8.007990e+02
2.529186e+03,7.805814e+02
2.540757e+03,7.908483e+02
2.552328e+03,7.877570e+02
2.563898e+03,7.736193e+02
2.575469e+03,7.694131e+02
2.587040e+03,7.485595e+02
2.598611e+03,7.558867e+02
2.610182e+03,7.520085e+02
2.621752e+03,7.379550e+02
2.633323e+03,7.399758e+02
2.644894e+03,7.344210e+02
2.656465e+03,7.244821e+02
2.668036e+03,7.372119e+02
2.679606e+03,7.143751e+02
2.691177e+03,7.123230e+02
2.702748e+03,6.923307e+02
2.714319e+03,6.988583e+02
2.725890e+03,6.864690e+02
2.737460e+03,6.806545e+02
2.749031e+03,6.735406e+02
2.760602e+03,6.742097e+02
2.772173e+03,6.725189e+02
2.783744e+03,6.551476e+02
2.795314e+03,6.739071e+02
2.806885e+03,6.679246e+02
2.818456e+03,6.521731e+02
2.830027e+03,6.687013e+02
2.841598e+03,6.533513e+02
2.853168e+03,6.644847e+02
2.864739e+03,6.653245e+02
2.876310e+03,6.769757e+02
2.887881e+03,6.806706e+02
2.899452e+03,6.721227e+02
2.911022e+03,6.760104e+02
2.922593e+03,6.364127e+02
2.934164e+03,6.467617e+02
2.945735e+03,6.383316e+02
2.957306e+03,6.843561e+02
2.968876e+03,6.072019e+02
2.980447e+03,6.362910e+02
2.992018e+03,6.120468e+02
3.003589e+03,6.089110e+02
3.015160e+03,5.993867e+02
3.026730e+03,5.767394e+02
3.038301e+03,5.958770e+02
3.049872e+03,5.691686e+02
3.061443e+03,6.060878e+02
3.073014e+03,5.692939e+02
3.084584e+03,5.482914e+02
3.096155e+03,5.648743e+02
3.107726e+03,5.637520e+02
3.119297e+03,5.835949e+02
3.130868e+03,5.697393e+02
3.142438e+03,5.960012e+02
3.154009e+03,5.942230e+02
3.165580e+03,6.170128e+02
3.177151e+03,5.612809e+02
3.188722e+03,5.522800e+02
3.200292e+03,6.295883e+02
3.211863e+03,0.000000e+00
3.223434e+03,0.000000e+00
3.235005e+03,0.000000e+00
3.246576e+03,0.000000e+00
3.258146e+03,0.000000e+00
3.269717e+03,0.000000e+00
3.281288e+03,0.000000e+00
3.292859e+03,0.000000e+00
3.304430e+03,0.000000e+00
3.316000e+03,0.000000e+00
3.327571e+03,0.000000e+00
3.339142e+03,0.000000e+00
3.350713e+03,0.000000e+00
3.362284e+03,0.000000e+00
3.373854e+03,0.000000e+00
3.385425e+03,0.000000e+00
3.396996e+03,0.000000e+00
3.408567e+03,0.000000e+00
3.420138e+03,0.000000e+00
3.431708e+03,0.000000e+00
3.443279e+03,0.000000e+00
3.454850e+03,0.000000e+00
3.466421e+03,0.000000e+00
3.477992e+03,0.000000e+00
3.489563e+03,0.000000e+00
3.500169e+03,0.000000e+00