File: RAMAN_data/12022024_r1/black fibre5.CSV
9.931763e+01,0.000000e+00
1.108884e+02,0.000000e+00
1.224592e+02,0.000000e+00
1.340300e+02,0.000000e+00
1.456008e+02,0.000000e+00
1.571716e+02,0.000000e+00
1.687424e+02,0.000000e+00
1.803132e+02,0.000000e+00
1.918840e+02,0.000000e+00
2.034548e+02,5.210921e+03
2.150256e+02,5.214567e+03
2.265964e+02,5.191758e+03
2.381673e+02,5.208666e+03
2.497381e+02,5.225703e+03
2.613088e+02,5.216713e+03
2.728796e+02,5.222981e+03
2.844504e+02,5.267069e+03
2.960212e+02,5.241550e+03
3.075920e+02,5.206764e+03
3.191628e+02,5.223240e+03
3.307336e+02,5.214721e+03
3.423044e+02,5.209532e+03
3.538752e+02,5.180386e+03
3.654461e+02,5.186437e+03
3.770169e+02,5.207138e+03
3.885877e+02,5.168016e+03
4.001585e+02,5.137895e+03
4.117293e+02,5.133716e+03
4.233001e+02,5.147798e+03
4.348709e+02,5.133728e+03
4.464417e+02,5.100573e+03
4.580125e+02,5.073496e+03
4.695833e+02,5.042064e+03
4.811541e+02,5.009792e+03
4.927249e+02,4.983514e+03
5.042957e+02,4.995563e+03
5.158665e+02,4.998409e+03
5.274373e+02,4.952909e+03
5.390081e+02,4.908709e+03
5.505789e+02,4.899905e+03
5.621497e+02,4.874412e+03
5.737205e+02,4.859511e+03
5.852913e+02,4.836815e+03
5.968621e+02,4.814852e+03
6.084329e+02,4.807843e+03
6.200037e+02,4.737850e+03
6.315745e+02,4.747782e+03
6.431453e+02,4.707655e+03
6.547161e+02,4.682979e+03
6.662869e+02,4.670542e+03
6.778577e+02,4.617719e+03
6.894285e+02,4.603752e+03
7.009993e+02,4.595557e+03
7.125701e+02,4.575787e+03
7.241409e+02,4.548189e+03
7.357117e+02,4.544421e+03
7.472825e+02,4.522188e+03
7.588533e+02,4.470337e+03
7.704241e+02,4.430747e+03
7.819949e+02,4.417729e+03
7.935657e+02,4.408886e+03
8.051365e+02,4.365474e+03
8.167073e+02,4.380833e+03
8.282781e+02,4.350812e+03
8.398489e+02,4.316932e+03
8.514197e+02,4.288651e+03
8.629905e+02,4.271468e+03
8.745613e+02,4.245532e+03
8.861321e+02,4.214849e+03
8.977029e+02,4.181458e+03
9.092737e+02,4.165519e+03
9.208445e+02,4.140678e+03
9.324153e+02,4.107462e+03
9.439861e+02,4.111426e+03
9.555569e+02,4.082569e+03
9.671277e+02,4.059348e+03
9.786985e+02,4.048398e+03
9.902693e+02,4.019980e+03
1.001840e+03,3.990591e+03
1.013411e+03,3.970784e+03
1.024982e+03,3.979234e+03
1.036552e+03,3.959420e+03
1.048123e+03,3.931062e+03
1.059694e+03,3.925974e+03
1.071265e+03,3.955904e+03
1.082836e+03,3.936677e+03
1.094406e+03,3.928357e+03
1.105977e+03,3.910550e+03
1.117548e+03,3.926719e+03
1.129119e+03,3.868892e+03
1.140690e+03,3.893781e+03
1.152261e+03,3.900813e+03
1.163831e+03,3.900455e+03
1.175402e+03,3.820886e+03
1.186973e+03,3.787230e+03
1.198544e+03,3.801253e+03
1.210115e+03,3.795477e+03
1.221685e+03,3.742958e+03
1.233256e+03,3.722857e+03
1.244827e+03,3.719538e+03
1.256398e+03,3.698331e+03
1.267969e+03,3.693818e+03
1.279539e+03,3.704321e+03
1.291110e+03,3.713564e+03
1.302681e+03,3.706791e+03
1.314252e+03,3.730616e+03
1.325823e+03,3.737125e+03
1.337393e+03,3.723528e+03
1.348964e+03,3.622360e+03
1.360535e+03,3.604659e+03
1.372106e+03,3.600602e+03
1.383677e+03,3.597265e+03
1.395247e+03,3.540963e+03
1.406818e+03,3.518365e+03
1.418389e+03,3.533619e+03
1.429960e+03,3.482325e+03
1.441531e+03,3.482362e+03
1.453101e+03,3.470941e+03
1.464672e+03,3.415980e+03
1.476243e+03,3.413970e+03
1.487814e+03,3.373535e+03
1.499385e+03,3.375909e+03
1.510955e+03,3.338717e+03
1.522526e+03,3.335337e+03
1.534097e+03,3.324485e+03
1.545668e+03,3.306907e+03
1.557239e+03,3.298687e+03
1.568809e+03,3.295007e+03
1.580380e+03,3.309710e+03
1.591951e+03,3.265806e+03
1.603522e+03,3.240283e+03
1.615093e+03,3.246623e+03
1.626663e+03,3.170839e+03
1.638234e+03,3.147132e+03
1.649805e+03,3.135205e+03
1.661376e+03,3.083246e+03
1.672947e+03,3.057578e+03
1.684517e+03,3.033070e+03
1.696088e+03,3.022331e+03
1.707659e+03,2.993613e+03
1.719230e+03,2.986679e+03
1.730801e+03,2.963198e+03
1.742371e+03,2.922415e+03
1.753942e+03,2.925536e+03
1.765513e+03,2.869743e+03
1.777084e+03,2.846809e+03
1.788655e+03,2.841210e+03
1.800225e+03,2.814183e+03
1.811796e+03,2.796259e+03
1.823367e+03,2.777423e+03
1.834938e+03,2.755029e+03
1.846509e+03,2.734095e+03
1.858079e+03,2.708274e+03
1.869650e+03,2.672910e+03
1.881221e+03,2.644817e+03
1.892792e+03,2.609543e+03
1.904363e+03,2.591006e+03
1.915933e+03,2.551877e+03
1.927504e+03,2.530833e+03
1.939075e+03,2.517516e+03
1.950646e+03,2.468975e+03
1.962217e+03,2.478406e+03
1.973787e+03,2.434988e+03
1.985358e+03,2.415608e+03
1.996929e+03,2.402421e+03
2.008500e+03,2.371784e+03
2.020071e+03,2.325962e+03
2.031641e+03,2.327647e+03
2.043212e+03,2.304392e+03
2.054783e+03,2.271072e+03
2.066354e+03,2.240248e+03
2.077925e+03,2.204658e+03
2.089496e+03,2.196575e+03
2.101066e+03,2.179615e+03
2.112637e+03,2.141266e+03
2.124208e+03,2.124887e+03
2.135779e+03,2.096169e+03
2.147350e+03,2.054315e+03
2.158920e+03,2.051241e+03
2.170491e+03,2.022511e+03
2.182062e+03,2.000271e+03
2.193633e+03,1.980010e+03
2.205204e+03,1.961843e+03
2.216774e+03,1.934598e+03
2.228345e+03,1.896999e+03
2.239916e+03,1.898222e+03
2.251487e+03,1.891794e+03
2.263058e+03,1.857944e+03
2.274628e+03,1.829894e+03
2.286199e+03,1.808826e+03
2.297770e+03,1.797298e+03
2.309341e+03,1.769414e+03
2.320912e+03,1.743712e+03
2.332482e+03,1.732372e+03
2.344053e+03,1.717790e+03
2.355624e+03,1.679761e+03
2.367195e+03,1.676767e+03
2.378766e+03,1.655515e+03
2.390336e+03,1.623781e+03
2.401907e+03,1.638324e+03
2.413478e+03,1.598313e+03
2.425049e+03,1.571410e+03
2.436620e+03,1.548825e+03
2.448190e+03,1.522205e+03
2.459761e+03,1.534993e+03
2.471332e+03,1.511850e+03
2.482903e+03,1.505908e+03
2.494474e+03,1.487565e+03
2.506044e+03,1.463965e+03
2.517615e+03,1.458708e+03
2.529186e+03,1.450568e+03
2.540757e+03,1.422013e+03
2.552328e+03,1.429384e+03
2.563898e+03,1.415557e+03
2.575469e+03,1.392862e+03
2.587040e+03,1.376376e+03
2.598611e+03,1.383792e+03
2.610182e+03,1.354984e+03
2.621752e+03,1.358684e+03
2.633323e+03,1.329215e+03
2.644894e+03,1.319261e+03
2.656465e+03,1.321665e+03
2.668036e+03,1.288895e+03
2.679606e+03,1.306042e+03
2.691177e+03,1.280270e+03
2.702748e+03,1.262914e+03
2.714319e+03,1.274147e+03
2.725890e+03,1.246789e+03
2.737460e+03,1.219581e+03
2.749031e+03,1.232786e+03
2.760602e+03,1.218817e+03
2.772173e+03,1.204050e+03
2.783744e+03,1.201197e+03
2.795314e+03,1.180881e+03
2.806885e+03,1.169184e+03
2.818456e+03,1.162655e+03
2.830027e+03,1.158652e+03
2.841598e+03,1.172258e+03
2.853168e+03,1.144875e+03
2.864739e+03,1.139961e+03
2.876310e+03,1.161048e+03
2.887881e+03,1.170736e+03
2.899452e+03,1.140579e+03
2.911022e+03,1.139493e+03
2.922593e+03,1.117442e+03
2.934164e+03,1.117271e+03
2.945735e+03,1.087106e+03
2.957306e+03,1.129352e+03
2.968876e+03,1.082092e+03
2.980447e+03,1.070054e+03
2.992018e+03,1.054073e+03
3.003589e+03,1.054657e+03
3.015160e+03,1.038170e+03
3.026730e+03,9.960372e+02
3.038301e+03,1.051103e+03
3.049872e+03,1.033021e+03
3.061443e+03,1.025701e+03
3.073014e+03,1.016249e+03
3.084584e+03,9.940060e+02
3.096155e+03,1.022953e+03
3.107726e+03,1.003450e+03
3.119297e+03,1.020664e+03
3.130868e+03,9.674955e+02
3.142438e+03,1.001676e+03
3.154009e+03,9.766106e+02
3.165580e+03,9.815876e+02
3.177151e+03,9.882606e+02
3.188722e+03,9.514785e+02
3.200292e+03,1.054805e+03
3.211863e+03,0.000000e+00
3.223434e+03,0.000000e+00
3.235005e+03,0.000000e+00
3.246576e+03,0.000000e+00
3.258146e+03,0.000000e+00
3.269717e+03,0.000000e+00
3.281288e+03,0.000000e+00
3.292859e+03,0.000000e+00
3.304430e+03,0.000000e+00
3.316000e+03,0.000000e+00
3.327571e+03,0.000000e+00
3.339142e+03,0.000000e+00
3.350713e+03,0.000000e+00
3.362284e+03,0.000000e+00
3.373854e+03,0.000000e+00
3.385425e+03,0.000000e+00
3.396996e+03,0.000000e+00
3.408567e+03,0.000000e+00
3.420138e+03,0.000000e+00
3.431708e+03,0.000000e+00
3.443279e+03,0.000000e+00
3.454850e+03,0.000000e+00
3.466421e+03,0.000000e+00
3.477992e+03,0.000000e+00
3.489563e+03,0.000000e+00
3.500169e+03,0.000000e+00