File: RAMAN_data/12022024_r1/black fibre2.CSV
9.931763e+01,0.000000e+00
1.108884e+02,0.000000e+00
1.224592e+02,0.000000e+00
1.340300e+02,0.000000e+00
1.456008e+02,0.000000e+00
1.571716e+02,0.000000e+00
1.687424e+02,0.000000e+00
1.803132e+02,0.000000e+00
1.918840e+02,0.000000e+00
2.034548e+02,4.179136e+03
2.150256e+02,4.146490e+03
2.265964e+02,4.105420e+03
2.381673e+02,4.099243e+03
2.497381e+02,4.103937e+03
2.613088e+02,4.057211e+03
2.728796e+02,4.016209e+03
2.844504e+02,4.029106e+03
2.960212e+02,4.005454e+03
3.075920e+02,3.968425e+03
3.191628e+02,3.974540e+03
3.307336e+02,3.959262e+03
3.423044e+02,3.951084e+03
3.538752e+02,3.927120e+03
3.654461e+02,3.888700e+03
3.770169e+02,3.901478e+03
3.885877e+02,3.849563e+03
4.001585e+02,3.802673e+03
4.117293e+02,3.808809e+03
4.233001e+02,3.785214e+03
4.348709e+02,3.777640e+03
4.464417e+02,3.741780e+03
4.580125e+02,3.733728e+03
4.695833e+02,3.712293e+03
4.811541e+02,3.673370e+03
4.927249e+02,3.631012e+03
5.042957e+02,3.610567e+03
5.158665e+02,3.629409e+03
5.274373e+02,3.578793e+03
5.390081e+02,3.563089e+03
5.505789e+02,3.529016e+03
5.621497e+02,3.536378e+03
5.737205e+02,3.488026e+03
5.852913e+02,3.453110e+03
5.968621e+02,3.440419e+03
6.084329e+02,3.430858e+03
6.200037e+02,3.394351e+03
6.315745e+02,3.380018e+03
6.431453e+02,3.328394e+03
6.547161e+02,3.321444e+03
6.662869e+02,3.285620e+03
6.778577e+02,3.259183e+03
6.894285e+02,3.227816e+03
7.009993e+02,3.236251e+03
7.125701e+02,3.197531e+03
7.241409e+02,3.173125e+03
7.357117e+02,3.153374e+03
7.472825e+02,3.102284e+03
7.588533e+02,3.092169e+03
7.704241e+02,3.057994e+03
7.819949e+02,3.042438e+03
7.935657e+02,3.025161e+03
8.051365e+02,2.979955e+03
8.167073e+02,2.963661e+03
8.282781e+02,2.957495e+03
8.398489e+02,2.923915e+03
8.514197e+02,2.882617e+03
8.629905e+02,2.884382e+03
8.745613e+02,2.856282e+03
8.861321e+02,2.848098e+03
8.977029e+02,2.797499e+03
9.092737e+02,2.782527e+03
9.208445e+02,2.747964e+03
9.324153e+02,2.730537e+03
9.439861e+02,2.697148e+03
9.555569e+02,2.684216e+03
9.671277e+02,2.668663e+03
9.786985e+02,2.629039e+03
9.902693e+02,2.616885e+03
1.001840e+03,2.589169e+03
1.013411e+03,2.554573e+03
1.024982e+03,2.536149e+03
1.036552e+03,2.524618e+03
1.048123e+03,2.501057e+03
1.059694e+03,2.501444e+03
1.071265e+03,2.469001e+03
1.082836e+03,2.462934e+03
1.094406e+03,2.480328e+03
1.105977e+03,2.421666e+03
1.117548e+03,2.423049e+03
1.129119e+03,2.373837e+03
1.140690e+03,2.354072e+03
1.152261e+03,2.347346e+03
1.163831e+03,2.321066e+03
1.175402e+03,2.286396e+03
1.186973e+03,2.284984e+03
1.198544e+03,2.261555e+03
1.210115e+03,2.236673e+03
1.221685e+03,2.222713e+03
1.233256e+03,2.204858e+03
1.244827e+03,2.196909e+03
1.256398e+03,2.190182e+03
1.267969e+03,2.167018e+03
1.279539e+03,2.155356e+03
1.291110e+03,2.141869e+03
1.302681e+03,2.122757e+03
1.314252e+03,2.100399e+03
1.325823e+03,2.103086e+03
1.337393e+03,2.093306e+03
1.348964e+03,2.070310e+03
1.360535e+03,2.058493e+03
1.372106e+03,2.043024e+03
1.383677e+03,2.033426e+03
1.395247e+03,1.997689e+03
1.406818e+03,1.991580e+03
1.418389e+03,1.965350e+03
1.429960e+03,1.936185e+03
1.441531e+03,1.947639e+03
1.453101e+03,1.924946e+03
1.464672e+03,1.901755e+03
1.476243e+03,1.901028e+03
1.487814e+03,1.871216e+03
1.499385e+03,1.850748e+03
1.510955e+03,1.840549e+03
1.522526e+03,1.842339e+03
1.534097e+03,1.815752e+03
1.545668e+03,1.806339e+03
1.557239e+03,1.798622e+03
1.568809e+03,1.795981e+03
1.580380e+03,1.782661e+03
1.591951e+03,1.783480e+03
1.603522e+03,1.757166e+03
1.615093e+03,1.741682e+03
1.626663e+03,1.729344e+03
1.638234e+03,1.698289e+03
1.649805e+03,1.680939e+03
1.661376e+03,1.664962e+03
1.672947e+03,1.647600e+03
1.684517e+03,1.639000e+03
1.696088e+03,1.630460e+03
1.707659e+03,1.615113e+03
1.719230e+03,1.584674e+03
1.730801e+03,1.584390e+03
1.742371e+03,1.563804e+03
1.753942e+03,1.567390e+03
1.765513e+03,1.541434e+03
1.777084e+03,1.527157e+03
1.788655e+03,1.509235e+03
1.800225e+03,1.496393e+03
1.811796e+03,1.494346e+03
1.823367e+03,1.477030e+03
1.834938e+03,1.476219e+03
1.846509e+03,1.458473e+03
1.858079e+03,1.439787e+03
1.869650e+03,1.406177e+03
1.881221e+03,1.405942e+03
1.892792e+03,1.396521e+03
1.904363e+03,1.374911e+03
1.915933e+03,1.386612e+03
1.927504e+03,1.364582e+03
1.939075e+03,1.341515e+03
1.950646e+03,1.331563e+03
1.962217e+03,1.315400e+03
1.973787e+03,1.303380e+03
1.985358e+03,1.291777e+03
1.996929e+03,1.280565e+03
2.008500e+03,1.267727e+03
2.020071e+03,1.263997e+03
2.031641e+03,1.239495e+03
2.043212e+03,1.228252e+03
2.054783e+03,1.220509e+03
2.066354e+03,1.189238e+03
2.077925e+03,1.198265e+03
2.089496e+03,1.178383e+03
2.101066e+03,1.160778e+03
2.112637e+03,1.157632e+03
2.124208e+03,1.142744e+03
2.135779e+03,1.140253e+03
2.147350e+03,1.121416e+03
2.158920e+03,1.115574e+03
2.170491e+03,1.097540e+03
2.182062e+03,1.072562e+03
2.193633e+03,1.050712e+03
2.205204e+03,1.063190e+03
2.216774e+03,1.045391e+03
2.228345e+03,1.042223e+03
2.239916e+03,1.023830e+03
2.251487e+03,1.009345e+03
2.263058e+03,1.010694e+03
2.274628e+03,9.927844e+02
2.286199e+03,9.762990e+02
2.297770e+03,9.807708e+02
2.309341e+03,9.549666e+02
2.320912e+03,9.492841e+02
2.332482e+03,9.420129e+02
2.344053e+03,9.470258e+02
2.355624e+03,9.266677e+02
2.367195e+03,9.119848e+02
2.378766e+03,9.237372e+02
2.390336e+03,8.921007e+02
2.401907e+03,8.879645e+02
2.413478e+03,8.798010e+02
2.425049e+03,8.598307e+02
2.436620e+03,8.623525e+02
2.448190e+03,8.571610e+02
2.459761e+03,8.461324e+02
2.471332e+03,8.428381e+02
2.482903e+03,8.377787e+02
2.494474e+03,8.170295e+02
2.506044e+03,8.199509e+02
2.517615e+03,8.089963e+02
2.529186e+03,8.035121e+02
2.540757e+03,7.866194e+02
2.552328e+03,7.952394e+02
2.563898e+03,7.942958e+02
2.575469e+03,7.873185e+02
2.587040e+03,7.753906e+02
2.598611e+03,7.610060e+02
2.610182e+03,7.624810e+02
2.621752e+03,7.555156e+02
2.633323e+03,7.552031e+02
2.644894e+03,7.363195e+02
2.656465e+03,7.225158e+02
2.668036e+03,7.279474e+02
2.679606e+03,7.295742e+02
2.691177e+03,7.151125e+02
2.702748e+03,7.093871e+02
2.714319e+03,7.171100e+02
2.725890e+03,7.184410e+02
2.737460e+03,7.166412e+02
2.749031e+03,6.930208e+02
2.760602e+03,6.981793e+02
2.772173e+03,6.860615e+02
2.783744e+03,6.861199e+02
2.795314e+03,6.884694e+02
2.806885e+03,6.851298e+02
2.818456e+03,6.842443e+02
2.830027e+03,6.729750e+02
2.841598e+03,6.718328e+02
2.853168e+03,6.853677e+02
2.864739e+03,6.743503e+02
2.876310e+03,6.927624e+02
2.887881e+03,6.848847e+02
2.899452e+03,6.958544e+02
2.911022e+03,6.853527e+02
2.922593e+03,6.593925e+02
2.934164e+03,6.650283e+02
2.945735e+03,6.532571e+02
2.957306e+03,7.032692e+02
2.968876e+03,6.555205e+02
2.980447e+03,6.199576e+02
2.992018e+03,6.392331e+02
3.003589e+03,6.019478e+02
3.015160e+03,6.076804e+02
3.026730e+03,6.027178e+02
3.038301e+03,5.947469e+02
3.049872e+03,5.839675e+02
3.061443e+03,5.893333e+02
3.073014e+03,5.499083e+02
3.084584e+03,5.796169e+02
3.096155e+03,5.960829e+02
3.107726e+03,6.078714e+02
3.119297e+03,5.870084e+02
3.130868e+03,6.367603e+02
3.142438e+03,6.032927e+02
3.154009e+03,5.956310e+02
3.165580e+03,6.058430e+02
3.177151e+03,5.800370e+02
3.188722e+03,5.736952e+02
3.200292e+03,6.296061e+02
3.211863e+03,0.000000e+00
3.223434e+03,0.000000e+00
3.235005e+03,0.000000e+00
3.246576e+03,0.000000e+00
3.258146e+03,0.000000e+00
3.269717e+03,0.000000e+00
3.281288e+03,0.000000e+00
3.292859e+03,0.000000e+00
3.304430e+03,0.000000e+00
3.316000e+03,0.000000e+00
3.327571e+03,0.000000e+00
3.339142e+03,0.000000e+00
3.350713e+03,0.000000e+00
3.362284e+03,0.000000e+00
3.373854e+03,0.000000e+00
3.385425e+03,0.000000e+00
3.396996e+03,0.000000e+00
3.408567e+03,0.000000e+00
3.420138e+03,0.000000e+00
3.431708e+03,0.000000e+00
3.443279e+03,0.000000e+00
3.454850e+03,0.000000e+00
3.466421e+03,0.000000e+00
3.477992e+03,0.000000e+00
3.489563e+03,0.000000e+00
3.500169e+03,0.000000e+00