File: RAMAN_data/12022024_r1/black fibre6.CSV
9.931763e+01,0.000000e+00
1.108884e+02,0.000000e+00
1.224592e+02,0.000000e+00
1.340300e+02,0.000000e+00
1.456008e+02,0.000000e+00
1.571716e+02,0.000000e+00
1.687424e+02,0.000000e+00
1.803132e+02,0.000000e+00
1.918840e+02,0.000000e+00
2.034548e+02,5.323715e+03
2.150256e+02,5.285436e+03
2.265964e+02,5.268633e+03
2.381673e+02,5.258761e+03
2.497381e+02,5.228594e+03
2.613088e+02,5.189040e+03
2.728796e+02,5.160189e+03
2.844504e+02,5.149973e+03
2.960212e+02,5.091642e+03
3.075920e+02,5.068731e+03
3.191628e+02,5.059818e+03
3.307336e+02,5.035603e+03
3.423044e+02,4.996406e+03
3.538752e+02,4.929319e+03
3.654461e+02,4.904800e+03
3.770169e+02,4.889022e+03
3.885877e+02,4.822033e+03
4.001585e+02,4.779388e+03
4.117293e+02,4.748861e+03
4.233001e+02,4.697833e+03
4.348709e+02,4.659817e+03
4.464417e+02,4.611517e+03
4.580125e+02,4.603934e+03
4.695833e+02,4.533596e+03
4.811541e+02,4.505308e+03
4.927249e+02,4.457435e+03
5.042957e+02,4.419370e+03
5.158665e+02,4.385491e+03
5.274373e+02,4.341752e+03
5.390081e+02,4.307411e+03
5.505789e+02,4.258691e+03
5.621497e+02,4.220368e+03
5.737205e+02,4.204542e+03
5.852913e+02,4.155139e+03
5.968621e+02,4.135360e+03
6.084329e+02,4.104044e+03
6.200037e+02,4.058051e+03
6.315745e+02,4.037170e+03
6.431453e+02,3.974534e+03
6.547161e+02,3.964552e+03
6.662869e+02,3.934696e+03
6.778577e+02,3.875361e+03
6.894285e+02,3.857966e+03
7.009993e+02,3.836807e+03
7.125701e+02,3.786456e+03
7.241409e+02,3.762155e+03
7.357117e+02,3.736262e+03
7.472825e+02,3.720185e+03
7.588533e+02,3.688832e+03
7.704241e+02,3.646258e+03
7.819949e+02,3.610114e+03
7.935657e+02,3.614315e+03
8.051365e+02,3.577747e+03
8.167073e+02,3.538395e+03
8.282781e+02,3.505453e+03
8.398489e+02,3.468271e+03
8.514197e+02,3.461268e+03
8.629905e+02,3.419110e+03
8.745613e+02,3.400322e+03
8.861321e+02,3.389916e+03
8.977029e+02,3.355541e+03
9.092737e+02,3.317124e+03
9.208445e+02,3.302969e+03
9.324153e+02,3.267579e+03
9.439861e+02,3.222274e+03
9.555569e+02,3.213124e+03
9.671277e+02,3.195220e+03
9.786985e+02,3.181059e+03
9.902693e+02,3.161611e+03
1.001840e+03,3.123029e+03
1.013411e+03,3.109593e+03
1.024982e+03,3.081578e+03
1.036552e+03,3.069142e+03
1.048123e+03,3.050275e+03
1.059694e+03,3.023078e+03
1.071265e+03,3.018385e+03
1.082836e+03,3.011609e+03
1.094406e+03,2.999820e+03
1.105977e+03,2.970709e+03
1.117548e+03,2.964983e+03
1.129119e+03,2.921766e+03
1.140690e+03,2.913591e+03
1.152261e+03,2.906247e+03
1.163831e+03,2.880352e+03
1.175402e+03,2.851725e+03
1.186973e+03,2.807600e+03
1.198544e+03,2.809930e+03
1.210115e+03,2.799102e+03
1.221685e+03,2.773015e+03
1.233256e+03,2.734423e+03
1.244827e+03,2.724535e+03
1.256398e+03,2.717825e+03
1.267969e+03,2.694941e+03
1.279539e+03,2.692573e+03
1.291110e+03,2.687333e+03
1.302681e+03,2.669337e+03
1.314252e+03,2.661720e+03
1.325823e+03,2.651118e+03
1.337393e+03,2.640230e+03
1.348964e+03,2.599075e+03
1.360535e+03,2.572405e+03
1.372106e+03,2.555865e+03
1.383677e+03,2.527934e+03
1.395247e+03,2.507012e+03
1.406818e+03,2.484469e+03
1.418389e+03,2.480347e+03
1.429960e+03,2.454812e+03
1.441531e+03,2.439225e+03
1.453101e+03,2.416986e+03
1.464672e+03,2.412738e+03
1.476243e+03,2.392129e+03
1.487814e+03,2.366672e+03
1.499385e+03,2.341357e+03
1.510955e+03,2.326195e+03
1.522526e+03,2.305850e+03
1.534097e+03,2.293446e+03
1.545668e+03,2.275663e+03
1.557239e+03,2.284711e+03
1.568809e+03,2.276096e+03
1.580380e+03,2.264803e+03
1.591951e+03,2.234177e+03
1.603522e+03,2.222695e+03
1.615093e+03,2.209425e+03
1.626663e+03,2.171819e+03
1.638234e+03,2.133737e+03
1.649805e+03,2.113730e+03
1.661376e+03,2.101885e+03
1.672947e+03,2.085938e+03
1.684517e+03,2.058916e+03
1.696088e+03,2.048631e+03
1.707659e+03,2.042084e+03
1.719230e+03,1.998876e+03
1.730801e+03,2.004674e+03
1.742371e+03,1.967215e+03
1.753942e+03,1.953043e+03
1.765513e+03,1.938645e+03
1.777084e+03,1.919030e+03
1.788655e+03,1.896279e+03
1.800225e+03,1.893650e+03
1.811796e+03,1.864658e+03
1.823367e+03,1.853175e+03
1.834938e+03,1.858424e+03
1.846509e+03,1.825301e+03
1.858079e+03,1.799208e+03
1.869650e+03,1.783124e+03
1.881221e+03,1.779527e+03
1.892792e+03,1.738061e+03
1.904363e+03,1.722950e+03
1.915933e+03,1.716648e+03
1.927504e+03,1.701156e+03
1.939075e+03,1.682187e+03
1.950646e+03,1.667160e+03
1.962217e+03,1.640938e+03
1.973787e+03,1.648408e+03
1.985358e+03,1.609320e+03
1.996929e+03,1.587535e+03
2.008500e+03,1.576238e+03
2.020071e+03,1.561853e+03
2.031641e+03,1.530387e+03
2.043212e+03,1.503874e+03
2.054783e+03,1.529116e+03
2.066354e+03,1.494081e+03
2.077925e+03,1.479183e+03
2.089496e+03,1.455288e+03
2.101066e+03,1.433123e+03
2.112637e+03,1.434597e+03
2.124208e+03,1.410746e+03
2.135779e+03,1.408681e+03
2.147350e+03,1.374285e+03
2.158920e+03,1.381287e+03
2.170491e+03,1.366224e+03
2.182062e+03,1.345018e+03
2.193633e+03,1.329623e+03
2.205204e+03,1.310929e+03
2.216774e+03,1.308570e+03
2.228345e+03,1.275307e+03
2.239916e+03,1.280511e+03
2.251487e+03,1.255202e+03
2.263058e+03,1.220527e+03
2.274628e+03,1.235534e+03
2.286199e+03,1.202940e+03
2.297770e+03,1.206198e+03
2.309341e+03,1.183400e+03
2.320912e+03,1.175510e+03
2.332482e+03,1.154622e+03
2.344053e+03,1.147788e+03
2.355624e+03,1.138931e+03
2.367195e+03,1.120699e+03
2.378766e+03,1.118574e+03
2.390336e+03,1.102167e+03
2.401907e+03,1.091117e+03
2.413478e+03,1.084598e+03
2.425049e+03,1.078242e+03
2.436620e+03,1.054787e+03
2.448190e+03,1.053113e+03
2.459761e+03,1.034018e+03
2.471332e+03,1.041429e+03
2.482903e+03,1.020363e+03
2.494474e+03,1.010923e+03
2.506044e+03,9.938358e+02
2.517615e+03,1.012756e+03
2.529186e+03,9.981523e+02
2.540757e+03,9.867838e+02
2.552328e+03,9.914407e+02
2.563898e+03,9.702048e+02
2.575469e+03,9.668936e+02
2.587040e+03,9.480377e+02
2.598611e+03,9.406915e+02
2.610182e+03,9.355383e+02
2.621752e+03,9.267974e+02
2.633323e+03,9.059766e+02
2.644894e+03,9.149560e+02
2.656465e+03,9.242672e+02
2.668036e+03,9.190562e+02
2.679606e+03,9.021740e+02
2.691177e+03,9.039625e+02
2.702748e+03,8.898201e+02
2.714319e+03,8.876432e+02
2.725890e+03,8.642802e+02
2.737460e+03,8.845303e+02
2.749031e+03,8.557416e+02
2.760602e+03,8.635436e+02
2.772173e+03,8.440801e+02
2.783744e+03,8.637784e+02
2.795314e+03,8.390621e+02
2.806885e+03,8.411291e+02
2.818456e+03,8.474610e+02
2.830027e+03,8.586629e+02
2.841598e+03,8.231088e+02
2.853168e+03,8.431461e+02
2.864739e+03,8.419164e+02
2.876310e+03,8.457599e+02
2.887881e+03,8.299494e+02
2.899452e+03,8.493711e+02
2.911022e+03,8.291598e+02
2.922593e+03,8.208820e+02
2.934164e+03,8.187708e+02
2.945735e+03,8.049778e+02
2.957306e+03,8.210480e+02
2.968876e+03,7.749832e+02
2.980447e+03,7.806591e+02
2.992018e+03,7.777435e+02
3.003589e+03,7.648179e+02
3.015160e+03,7.531990e+02
3.026730e+03,7.525815e+02
3.038301e+03,7.726399e+02
3.049872e+03,7.408253e+02
3.061443e+03,7.460018e+02
3.073014e+03,7.530231e+02
3.084584e+03,7.709704e+02
3.096155e+03,7.747164e+02
3.107726e+03,8.046301e+02
3.119297e+03,7.591702e+02
3.130868e+03,7.573392e+02
3.142438e+03,7.487401e+02
3.154009e+03,7.788768e+02
3.165580e+03,7.690636e+02
3.177151e+03,7.514078e+02
3.188722e+03,7.720673e+02
3.200292e+03,7.981710e+02
3.211863e+03,0.000000e+00
3.223434e+03,0.000000e+00
3.235005e+03,0.000000e+00
3.246576e+03,0.000000e+00
3.258146e+03,0.000000e+00
3.269717e+03,0.000000e+00
3.281288e+03,0.000000e+00
3.292859e+03,0.000000e+00
3.304430e+03,0.000000e+00
3.316000e+03,0.000000e+00
3.327571e+03,0.000000e+00
3.339142e+03,0.000000e+00
3.350713e+03,0.000000e+00
3.362284e+03,0.000000e+00
3.373854e+03,0.000000e+00
3.385425e+03,0.000000e+00
3.396996e+03,0.000000e+00
3.408567e+03,0.000000e+00
3.420138e+03,0.000000e+00
3.431708e+03,0.000000e+00
3.443279e+03,0.000000e+00
3.454850e+03,0.000000e+00
3.466421e+03,0.000000e+00
3.477992e+03,0.000000e+00
3.489563e+03,0.000000e+00
3.500169e+03,0.000000e+00