File: RAMAN_data/12022024_r1/black fibre4.CSV
9.931763e+01,0.000000e+00
1.108884e+02,0.000000e+00
1.224592e+02,0.000000e+00
1.340300e+02,0.000000e+00
1.456008e+02,0.000000e+00
1.571716e+02,0.000000e+00
1.687424e+02,0.000000e+00
1.803132e+02,0.000000e+00
1.918840e+02,0.000000e+00
2.034548e+02,1.074320e+03
2.150256e+02,1.070991e+03
2.265964e+02,1.061675e+03
2.381673e+02,1.060413e+03
2.497381e+02,1.049237e+03
2.613088e+02,1.041738e+03
2.728796e+02,1.041285e+03
2.844504e+02,1.041575e+03
2.960212e+02,1.038435e+03
3.075920e+02,1.038541e+03
3.191628e+02,1.031099e+03
3.307336e+02,1.030224e+03
3.423044e+02,1.029109e+03
3.538752e+02,1.010323e+03
3.654461e+02,1.014246e+03
3.770169e+02,1.045221e+03
3.885877e+02,9.991077e+02
4.001585e+02,9.786718e+02
4.117293e+02,9.852918e+02
4.233001e+02,9.826071e+02
4.348709e+02,9.862889e+02
4.464417e+02,9.655795e+02
4.580125e+02,9.692339e+02
4.695833e+02,9.447783e+02
4.811541e+02,9.473514e+02
4.927249e+02,9.351578e+02
5.042957e+02,9.253890e+02
5.158665e+02,9.296671e+02
5.274373e+02,9.190688e+02
5.390081e+02,8.998857e+02
5.505789e+02,8.957866e+02
5.621497e+02,8.916584e+02
5.737205e+02,8.914628e+02
5.852913e+02,8.865553e+02
5.968621e+02,8.693734e+02
6.084329e+02,8.786564e+02
6.200037e+02,8.627869e+02
6.315745e+02,8.715716e+02
6.431453e+02,8.641711e+02
6.547161e+02,8.588480e+02
6.662869e+02,8.437538e+02
6.778577e+02,8.386599e+02
6.894285e+02,8.227369e+02
7.009993e+02,8.219832e+02
7.125701e+02,8.338893e+02
7.241409e+02,8.207735e+02
7.357117e+02,8.151344e+02
7.472825e+02,8.133355e+02
7.588533e+02,8.004933e+02
7.704241e+02,7.914597e+02
7.819949e+02,7.880462e+02
7.935657e+02,7.815099e+02
8.051365e+02,7.780016e+02
8.167073e+02,7.790488e+02
8.282781e+02,7.728201e+02
8.398489e+02,7.674086e+02
8.514197e+02,7.650995e+02
8.629905e+02,7.684802e+02
8.745613e+02,7.551604e+02
8.861321e+02,7.503065e+02
8.977029e+02,7.433333e+02
9.092737e+02,7.498110e+02
9.208445e+02,7.342840e+02
9.324153e+02,7.285385e+02
9.439861e+02,7.174891e+02
9.555569e+02,7.163328e+02
9.671277e+02,7.234995e+02
9.786985e+02,7.124437e+02
9.902693e+02,7.160967e+02
1.001840e+03,7.050242e+02
1.013411e+03,6.977086e+02
1.024982e+03,7.004842e+02
1.036552e+03,7.056055e+02
1.048123e+03,7.012997e+02
1.059694e+03,7.033661e+02
1.071265e+03,7.105268e+02
1.082836e+03,7.090475e+02
1.094406e+03,7.415330e+02
1.105977e+03,7.003344e+02
1.117548e+03,7.270705e+02
1.129119e+03,6.950183e+02
1.140690e+03,6.783000e+02
1.152261e+03,6.934815e+02
1.163831e+03,6.921454e+02
1.175402e+03,6.719706e+02
1.186973e+03,6.561426e+02
1.198544e+03,6.523633e+02
1.210115e+03,6.484952e+02
1.221685e+03,6.386876e+02
1.233256e+03,6.372316e+02
1.244827e+03,6.347092e+02
1.256398e+03,6.393142e+02
1.267969e+03,6.415488e+02
1.279539e+03,6.375189e+02
1.291110e+03,6.463307e+02
1.302681e+03,6.404821e+02
1.314252e+03,6.451572e+02
1.325823e+03,6.566172e+02
1.337393e+03,6.453096e+02
1.348964e+03,6.321578e+02
1.360535e+03,6.205342e+02
1.372106e+03,6.282150e+02
1.383677e+03,6.197782e+02
1.395247e+03,6.024567e+02
1.406818e+03,6.022736e+02
1.418389e+03,5.905294e+02
1.429960e+03,5.847910e+02
1.441531e+03,5.814654e+02
1.453101e+03,5.860687e+02
1.464672e+03,5.799170e+02
1.476243e+03,5.782867e+02
1.487814e+03,5.653847e+02
1.499385e+03,5.578405e+02
1.510955e+03,5.514371e+02
1.522526e+03,5.548988e+02
1.534097e+03,5.547371e+02
1.545668e+03,5.468923e+02
1.557239e+03,5.522776e+02
1.568809e+03,5.449454e+02
1.580380e+03,5.482189e+02
1.591951e+03,5.381078e+02
1.603522e+03,5.413577e+02
1.615093e+03,5.489395e+02
1.626663e+03,5.219772e+02
1.638234e+03,5.249667e+02
1.649805e+03,5.107995e+02
1.661376e+03,5.131376e+02
1.672947e+03,5.027698e+02
1.684517e+03,5.095958e+02
1.696088e+03,4.968081e+02
1.707659e+03,4.976999e+02
1.719230e+03,4.972432e+02
1.730801e+03,4.939988e+02
1.742371e+03,4.779324e+02
1.753942e+03,4.791355e+02
1.765513e+03,4.687596e+02
1.777084e+03,4.685151e+02
1.788655e+03,4.680954e+02
1.800225e+03,4.594586e+02
1.811796e+03,4.642290e+02
1.823367e+03,4.516006e+02
1.834938e+03,4.544567e+02
1.846509e+03,4.498573e+02
1.858079e+03,4.429850e+02
1.869650e+03,4.303101e+02
1.881221e+03,4.228750e+02
1.892792e+03,4.233861e+02
1.904363e+03,4.235813e+02
1.915933e+03,4.185510e+02
1.927504e+03,4.115760e+02
1.939075e+03,4.138948e+02
1.950646e+03,4.045619e+02
1.962217e+03,4.014586e+02
1.973787e+03,4.070434e+02
1.985358e+03,3.868211e+02
1.996929e+03,3.886533e+02
2.008500e+03,3.897484e+02
2.020071e+03,3.840625e+02
2.031641e+03,3.756808e+02
2.043212e+03,3.699672e+02
2.054783e+03,3.780130e+02
2.066354e+03,3.688896e+02
2.077925e+03,3.630513e+02
2.089496e+03,3.562873e+02
2.101066e+03,3.488588e+02
2.112637e+03,3.435224e+02
2.124208e+03,3.448255e+02
2.135779e+03,3.374155e+02
2.147350e+03,3.302208e+02
2.158920e+03,3.241393e+02
2.170491e+03,3.223499e+02
2.182062e+03,3.332780e+02
2.193633e+03,3.187351e+02
2.205204e+03,3.229387e+02
2.216774e+03,3.175589e+02
2.228345e+03,3.101421e+02
2.239916e+03,3.090371e+02
2.251487e+03,2.988330e+02
2.263058e+03,3.068400e+02
2.274628e+03,2.903805e+02
2.286199e+03,2.865160e+02
2.297770e+03,2.978720e+02
2.309341e+03,2.838417e+02
2.320912e+03,2.857633e+02
2.332482e+03,2.798144e+02
2.344053e+03,2.809366e+02
2.355624e+03,2.775157e+02
2.367195e+03,2.708962e+02
2.378766e+03,2.746337e+02
2.390336e+03,2.674848e+02
2.401907e+03,2.666232e+02
2.413478e+03,2.605363e+02
2.425049e+03,2.620396e+02
2.436620e+03,2.611979e+02
2.448190e+03,2.507954e+02
2.459761e+03,2.546583e+02
2.471332e+03,2.523895e+02
2.482903e+03,2.482666e+02
2.494474e+03,2.381213e+02
2.506044e+03,2.511969e+02
2.517615e+03,2.501514e+02
2.529186e+03,2.431316e+02
2.540757e+03,2.368280e+02
2.552328e+03,2.407637e+02
2.563898e+03,2.499246e+02
2.575469e+03,2.465088e+02
2.587040e+03,2.337169e+02
2.598611e+03,2.343887e+02
2.610182e+03,2.277785e+02
2.621752e+03,2.258458e+02
2.633323e+03,2.270383e+02
2.644894e+03,2.264436e+02
2.656465e+03,2.228645e+02
2.668036e+03,2.145568e+02
2.679606e+03,2.190763e+02
2.691177e+03,2.193945e+02
2.702748e+03,2.208032e+02
2.714319e+03,2.147482e+02
2.725890e+03,2.070527e+02
2.737460e+03,2.158971e+02
2.749031e+03,2.186863e+02
2.760602e+03,2.184694e+02
2.772173e+03,2.204539e+02
2.783744e+03,2.105573e+02
2.795314e+03,2.068343e+02
2.806885e+03,2.071268e+02
2.818456e+03,2.063804e+02
2.830027e+03,2.173349e+02
2.841598e+03,2.173943e+02
2.853168e+03,2.232316e+02
2.864739e+03,2.276148e+02
2.876310e+03,2.372831e+02
2.887881e+03,2.544670e+02
2.899452e+03,2.603578e+02
2.911022e+03,2.547848e+02
2.922593e+03,2.194526e+02
2.934164e+03,2.355479e+02
2.945735e+03,2.340527e+02
2.957306e+03,2.429447e+02
2.968876e+03,2.205585e+02
2.980447e+03,1.829742e+02
2.992018e+03,1.933887e+02
3.003589e+03,1.829083e+02
3.015160e+03,1.799235e+02
3.026730e+03,1.849289e+02
3.038301e+03,1.861364e+02
3.049872e+03,1.847398e+02
3.061443e+03,1.940842e+02
3.073014e+03,1.813065e+02
3.084584e+03,1.839353e+02
3.096155e+03,1.893143e+02
3.107726e+03,1.909987e+02
3.119297e+03,2.149606e+02
3.130868e+03,2.023761e+02
3.142438e+03,2.065194e+02
3.154009e+03,2.079718e+02
3.165580e+03,1.959186e+02
3.177151e+03,1.804407e+02
3.188722e+03,1.803430e+02
3.200292e+03,2.213849e+02
3.211863e+03,0.000000e+00
3.223434e+03,0.000000e+00
3.235005e+03,0.000000e+00
3.246576e+03,0.000000e+00
3.258146e+03,0.000000e+00
3.269717e+03,0.000000e+00
3.281288e+03,0.000000e+00
3.292859e+03,0.000000e+00
3.304430e+03,0.000000e+00
3.316000e+03,0.000000e+00
3.327571e+03,0.000000e+00
3.339142e+03,0.000000e+00
3.350713e+03,0.000000e+00
3.362284e+03,0.000000e+00
3.373854e+03,0.000000e+00
3.385425e+03,0.000000e+00
3.396996e+03,0.000000e+00
3.408567e+03,0.000000e+00
3.420138e+03,0.000000e+00
3.431708e+03,0.000000e+00
3.443279e+03,0.000000e+00
3.454850e+03,0.000000e+00
3.466421e+03,0.000000e+00
3.477992e+03,0.000000e+00
3.489563e+03,0.000000e+00
3.500169e+03,0.000000e+00