File: RAMAN_data/12022024_r1/black fibre1.CSV
9.931763e+01,0.000000e+00
1.108884e+02,0.000000e+00
1.224592e+02,0.000000e+00
1.340300e+02,0.000000e+00
1.456008e+02,0.000000e+00
1.571716e+02,0.000000e+00
1.687424e+02,0.000000e+00
1.803132e+02,0.000000e+00
1.918840e+02,0.000000e+00
2.034548e+02,3.341776e+02
2.150256e+02,3.362087e+02
2.265964e+02,3.327999e+02
2.381673e+02,3.412715e+02
2.497381e+02,3.318354e+02
2.613088e+02,3.297959e+02
2.728796e+02,3.301619e+02
2.844504e+02,3.295473e+02
2.960212e+02,3.276783e+02
3.075920e+02,3.370302e+02
3.191628e+02,3.342049e+02
3.307336e+02,3.361208e+02
3.423044e+02,3.377043e+02
3.538752e+02,3.321294e+02
3.654461e+02,3.320124e+02
3.770169e+02,3.587337e+02
3.885877e+02,3.234928e+02
4.001585e+02,3.176007e+02
4.117293e+02,3.169068e+02
4.233001e+02,3.159096e+02
4.348709e+02,3.327416e+02
4.464417e+02,3.213226e+02
4.580125e+02,3.236743e+02
4.695833e+02,3.041762e+02
4.811541e+02,3.090287e+02
4.927249e+02,3.077887e+02
5.042957e+02,2.996422e+02
5.158665e+02,3.065832e+02
5.274373e+02,2.953434e+02
5.390081e+02,2.918082e+02
5.505789e+02,2.898094e+02
5.621497e+02,2.904937e+02
5.737205e+02,2.878838e+02
5.852913e+02,2.794849e+02
5.968621e+02,2.824689e+02
6.084329e+02,2.860646e+02
6.200037e+02,2.784721e+02
6.315745e+02,2.787911e+02
6.431453e+02,2.755726e+02
6.547161e+02,2.769896e+02
6.662869e+02,2.708222e+02
6.778577e+02,2.709446e+02
6.894285e+02,2.729331e+02
7.009993e+02,2.670212e+02
7.125701e+02,2.670199e+02
7.241409e+02,2.670992e+02
7.357117e+02,2.669417e+02
7.472825e+02,2.551828e+02
7.588533e+02,2.554568e+02
7.704241e+02,2.543306e+02
7.819949e+02,2.584386e+02
7.935657e+02,2.544942e+02
8.051365e+02,2.599929e+02
8.167073e+02,2.538615e+02
8.282781e+02,2.535041e+02
8.398489e+02,2.478172e+02
8.514197e+02,2.507334e+02
8.629905e+02,2.484427e+02
8.745613e+02,2.532442e+02
8.861321e+02,2.585602e+02
8.977029e+02,2.486494e+02
9.092737e+02,2.475013e+02
9.208445e+02,2.440971e+02
9.324153e+02,2.395663e+02
9.439861e+02,2.363103e+02
9.555569e+02,2.390335e+02
9.671277e+02,2.406543e+02
9.786985e+02,2.410390e+02
9.902693e+02,2.447631e+02
1.001840e+03,2.390631e+02
1.013411e+03,2.335516e+02
1.024982e+03,2.386856e+02
1.036552e+03,2.413878e+02
1.048123e+03,2.413519e+02
1.059694e+03,2.434581e+02
1.071265e+03,2.476124e+02
1.082836e+03,2.549174e+02
1.094406e+03,2.954269e+02
1.105977e+03,2.623240e+02
1.117548e+03,2.734991e+02
1.129119e+03,2.539737e+02
1.140690e+03,2.405420e+02
1.152261e+03,2.472222e+02
1.163831e+03,2.317509e+02
1.175402e+03,2.240209e+02
1.186973e+03,2.230385e+02
1.198544e+03,2.250661e+02
1.210115e+03,2.218343e+02
1.221685e+03,2.258194e+02
1.233256e+03,2.266673e+02
1.244827e+03,2.272908e+02
1.256398e+03,2.246502e+02
1.267969e+03,2.257586e+02
1.279539e+03,2.302923e+02
1.291110e+03,2.342052e+02
1.302681e+03,2.265448e+02
1.314252e+03,2.277552e+02
1.325823e+03,2.348312e+02
1.337393e+03,2.414490e+02
1.348964e+03,2.318525e+02
1.360535e+03,2.374563e+02
1.372106e+03,2.421114e+02
1.383677e+03,2.405041e+02
1.395247e+03,2.262453e+02
1.406818e+03,2.267456e+02
1.418389e+03,2.213219e+02
1.429960e+03,2.195882e+02
1.441531e+03,2.188431e+02
1.453101e+03,2.217248e+02
1.464672e+03,2.231625e+02
1.476243e+03,2.211164e+02
1.487814e+03,2.099900e+02
1.499385e+03,2.091646e+02
1.510955e+03,2.107252e+02
1.522526e+03,2.074206e+02
1.534097e+03,2.064233e+02
1.545668e+03,2.039449e+02
1.557239e+03,2.034727e+02
1.568809e+03,2.076622e+02
1.580380e+03,2.022002e+02
1.591951e+03,2.043046e+02
1.603522e+03,2.057913e+02
1.615093e+03,2.029389e+02
1.626663e+03,1.969104e+02
1.638234e+03,1.957840e+02
1.649805e+03,1.923597e+02
1.661376e+03,1.962840e+02
1.672947e+03,1.943672e+02
1.684517e+03,1.894929e+02
1.696088e+03,1.898269e+02
1.707659e+03,1.899491e+02
1.719230e+03,1.882139e+02
1.730801e+03,1.875412e+02
1.742371e+03,1.831879e+02
1.753942e+03,1.837616e+02
1.765513e+03,1.847677e+02
1.777084e+03,1.818012e+02
1.788655e+03,1.861821e+02
1.800225e+03,1.814786e+02
1.811796e+03,1.842178e+02
1.823367e+03,1.782824e+02
1.834938e+03,1.790469e+02
1.846509e+03,1.724804e+02
1.858079e+03,1.716542e+02
1.869650e+03,1.706438e+02
1.881221e+03,1.695032e+02
1.892792e+03,1.687225e+02
1.904363e+03,1.692689e+02
1.915933e+03,1.626755e+02
1.927504e+03,1.646134e+02
1.939075e+03,1.623799e+02
1.950646e+03,1.639019e+02
1.962217e+03,1.636664e+02
1.973787e+03,1.617651e+02
1.985358e+03,1.577541e+02
1.996929e+03,1.519177e+02
2.008500e+03,1.602984e+02
2.020071e+03,1.546422e+02
2.031641e+03,1.515652e+02
2.043212e+03,1.526402e+02
2.054783e+03,1.550311e+02
2.066354e+03,1.533096e+02
2.077925e+03,1.513926e+02
2.089496e+03,1.510822e+02
2.101066e+03,1.430298e+02
2.112637e+03,1.464791e+02
2.124208e+03,1.438071e+02
2.135779e+03,1.429041e+02
2.147350e+03,1.380511e+02
2.158920e+03,1.431307e+02
2.170491e+03,1.347243e+02
2.182062e+03,1.428629e+02
2.193633e+03,1.400031e+02
2.205204e+03,1.405551e+02
2.216774e+03,1.368561e+02
2.228345e+03,1.286506e+02
2.239916e+03,1.353903e+02
2.251487e+03,1.317144e+02
2.263058e+03,1.310609e+02
2.274628e+03,1.354733e+02
2.286199e+03,1.290270e+02
2.297770e+03,1.346498e+02
2.309341e+03,1.284350e+02
2.320912e+03,1.280355e+02
2.332482e+03,1.301199e+02
2.344053e+03,1.265256e+02
2.355624e+03,1.243963e+02
2.367195e+03,1.185774e+02
2.378766e+03,1.224020e+02
2.390336e+03,1.251120e+02
2.401907e+03,1.251609e+02
2.413478e+03,1.137517e+02
2.425049e+03,1.189048e+02
2.436620e+03,1.218100e+02
2.448190e+03,1.148806e+02
2.459761e+03,1.185251e+02
2.471332e+03,1.116648e+02
2.482903e+03,1.187848e+02
2.494474e+03,1.163198e+02
2.506044e+03,1.222246e+02
2.517615e+03,1.186393e+02
2.529186e+03,1.083075e+02
2.540757e+03,1.154542e+02
2.552328e+03,1.194802e+02
2.563898e+03,1.220851e+02
2.575469e+03,1.199643e+02
2.587040e+03,1.153377e+02
2.598611e+03,1.124931e+02
2.610182e+03,1.109016e+02
2.621752e+03,1.123991e+02
2.633323e+03,1.111059e+02
2.644894e+03,1.091541e+02
2.656465e+03,1.137797e+02
2.668036e+03,1.119020e+02
2.679606e+03,1.109791e+02
2.691177e+03,1.172639e+02
2.702748e+03,1.125649e+02
2.714319e+03,1.175500e+02
2.725890e+03,1.087859e+02
2.737460e+03,1.124352e+02
2.749031e+03,1.086771e+02
2.760602e+03,1.194577e+02
2.772173e+03,1.240280e+02
2.783744e+03,1.122971e+02
2.795314e+03,1.077822e+02
2.806885e+03,1.054357e+02
2.818456e+03,1.144048e+02
2.830027e+03,1.222670e+02
2.841598e+03,1.253676e+02
2.853168e+03,1.301861e+02
2.864739e+03,1.301956e+02
2.876310e+03,1.501236e+02
2.887881e+03,1.618806e+02
2.899452e+03,1.756227e+02
2.911022e+03,1.599902e+02
2.922593e+03,1.392524e+02
2.934164e+03,1.431320e+02
2.945735e+03,1.311625e+02
2.957306e+03,1.649245e+02
2.968876e+03,1.357243e+02
2.980447e+03,1.075933e+02
2.992018e+03,1.092005e+02
3.003589e+03,1.047803e+02
3.015160e+03,9.693200e+01
3.026730e+03,1.032646e+02
3.038301e+03,9.915797e+01
3.049872e+03,9.754493e+01
3.061443e+03,9.865166e+01
3.073014e+03,9.638713e+01
3.084584e+03,1.082880e+02
3.096155e+03,1.193959e+02
3.107726e+03,1.204262e+02
3.119297e+03,1.084321e+02
3.130868e+03,1.241106e+02
3.142438e+03,1.319616e+02
3.154009e+03,1.291163e+02
3.165580e+03,1.482583e+02
3.177151e+03,1.165962e+02
3.188722e+03,1.034500e+02
3.200292e+03,1.488847e+02
3.211863e+03,0.000000e+00
3.223434e+03,0.000000e+00
3.235005e+03,0.000000e+00
3.246576e+03,0.000000e+00
3.258146e+03,0.000000e+00
3.269717e+03,0.000000e+00
3.281288e+03,0.000000e+00
3.292859e+03,0.000000e+00
3.304430e+03,0.000000e+00
3.316000e+03,0.000000e+00
3.327571e+03,0.000000e+00
3.339142e+03,0.000000e+00
3.350713e+03,0.000000e+00
3.362284e+03,0.000000e+00
3.373854e+03,0.000000e+00
3.385425e+03,0.000000e+00
3.396996e+03,0.000000e+00
3.408567e+03,0.000000e+00
3.420138e+03,0.000000e+00
3.431708e+03,0.000000e+00
3.443279e+03,0.000000e+00
3.454850e+03,0.000000e+00
3.466421e+03,0.000000e+00
3.477992e+03,0.000000e+00
3.489563e+03,0.000000e+00
3.500169e+03,0.000000e+00