File: RAMAN_data/12022024_r1/black fibre7.CSV
9.931763e+01,0.000000e+00
1.108884e+02,0.000000e+00
1.224592e+02,0.000000e+00
1.340300e+02,0.000000e+00
1.456008e+02,0.000000e+00
1.571716e+02,0.000000e+00
1.687424e+02,0.000000e+00
1.803132e+02,0.000000e+00
1.918840e+02,0.000000e+00
2.034548e+02,1.083032e+03
2.150256e+02,1.077706e+03
2.265964e+02,1.073158e+03
2.381673e+02,1.078712e+03
2.497381e+02,1.073977e+03
2.613088e+02,1.067521e+03
2.728796e+02,1.064444e+03
2.844504e+02,1.060776e+03
2.960212e+02,1.056807e+03
3.075920e+02,1.062164e+03
3.191628e+02,1.043770e+03
3.307336e+02,1.056542e+03
3.423044e+02,1.050380e+03
3.538752e+02,1.036625e+03
3.654461e+02,1.030386e+03
3.770169e+02,1.056219e+03
3.885877e+02,1.028803e+03
4.001585e+02,1.012982e+03
4.117293e+02,1.018670e+03
4.233001e+02,1.010817e+03
4.348709e+02,1.020079e+03
4.464417e+02,1.000502e+03
4.580125e+02,1.007572e+03
4.695833e+02,9.835748e+02
4.811541e+02,9.910998e+02
4.927249e+02,9.924231e+02
5.042957e+02,9.882488e+02
5.158665e+02,9.854210e+02
5.274373e+02,9.710980e+02
5.390081e+02,9.725165e+02
5.505789e+02,9.627900e+02
5.621497e+02,9.529932e+02
5.737205e+02,9.545227e+02
5.852913e+02,9.507542e+02
5.968621e+02,9.505900e+02
6.084329e+02,9.477166e+02
6.200037e+02,9.470892e+02
6.315745e+02,9.390916e+02
6.431453e+02,9.318365e+02
6.547161e+02,9.295789e+02
6.662869e+02,9.260640e+02
6.778577e+02,9.159534e+02
6.894285e+02,9.104766e+02
7.009993e+02,9.092356e+02
7.125701e+02,9.095031e+02
7.241409e+02,9.036912e+02
7.357117e+02,8.987164e+02
7.472825e+02,8.948826e+02
7.588533e+02,8.905713e+02
7.704241e+02,8.874910e+02
7.819949e+02,8.953295e+02
7.935657e+02,8.784534e+02
8.051365e+02,8.741147e+02
8.167073e+02,8.816946e+02
8.282781e+02,8.843688e+02
8.398489e+02,8.686243e+02
8.514197e+02,8.613089e+02
8.629905e+02,8.672360e+02
8.745613e+02,8.590369e+02
8.861321e+02,8.618953e+02
8.977029e+02,8.433406e+02
9.092737e+02,8.451772e+02
9.208445e+02,8.442157e+02
9.324153e+02,8.336835e+02
9.439861e+02,8.216713e+02
9.555569e+02,8.303997e+02
9.671277e+02,8.187487e+02
9.786985e+02,8.179539e+02
9.902693e+02,8.130090e+02
1.001840e+03,8.136935e+02
1.013411e+03,7.991878e+02
1.024982e+03,8.092029e+02
1.036552e+03,8.056590e+02
1.048123e+03,8.021777e+02
1.059694e+03,8.029972e+02
1.071265e+03,7.939592e+02
1.082836e+03,8.045016e+02
1.094406e+03,8.212717e+02
1.105977e+03,7.979562e+02
1.117548e+03,8.032723e+02
1.129119e+03,7.951018e+02
1.140690e+03,7.896707e+02
1.152261e+03,7.898259e+02
1.163831e+03,7.672689e+02
1.175402e+03,7.633503e+02
1.186973e+03,7.620253e+02
1.198544e+03,7.590848e+02
1.210115e+03,7.542011e+02
1.221685e+03,7.556257e+02
1.233256e+03,7.425102e+02
1.244827e+03,7.439680e+02
1.256398e+03,7.414108e+02
1.267969e+03,7.452167e+02
1.279539e+03,7.503525e+02
1.291110e+03,7.441680e+02
1.302681e+03,7.365428e+02
1.314252e+03,7.326829e+02
1.325823e+03,7.309080e+02
1.337393e+03,7.440266e+02
1.348964e+03,7.343221e+02
1.360535e+03,7.290399e+02
1.372106e+03,7.282286e+02
1.383677e+03,7.198286e+02
1.395247e+03,7.029183e+02
1.406818e+03,7.140118e+02
1.418389e+03,7.089635e+02
1.429960e+03,6.962482e+02
1.441531e+03,6.888503e+02
1.453101e+03,6.907096e+02
1.464672e+03,6.855369e+02
1.476243e+03,6.959651e+02
1.487814e+03,6.811698e+02
1.499385e+03,6.696038e+02
1.510955e+03,6.652348e+02
1.522526e+03,6.646652e+02
1.534097e+03,6.650035e+02
1.545668e+03,6.643332e+02
1.557239e+03,6.626840e+02
1.568809e+03,6.629002e+02
1.580380e+03,6.533943e+02
1.591951e+03,6.562444e+02
1.603522e+03,6.503074e+02
1.615093e+03,6.462763e+02
1.626663e+03,6.306725e+02
1.638234e+03,6.289250e+02
1.649805e+03,6.193055e+02
1.661376e+03,6.186434e+02
1.672947e+03,6.159958e+02
1.684517e+03,6.151709e+02
1.696088e+03,6.085354e+02
1.707659e+03,6.065345e+02
1.719230e+03,6.106940e+02
1.730801e+03,5.981459e+02
1.742371e+03,6.015371e+02
1.753942e+03,5.971934e+02
1.765513e+03,5.899855e+02
1.777084e+03,5.893353e+02
1.788655e+03,5.828458e+02
1.800225e+03,5.802092e+02
1.811796e+03,5.676232e+02
1.823367e+03,5.606717e+02
1.834938e+03,5.644461e+02
1.846509e+03,5.684310e+02
1.858079e+03,5.551951e+02
1.869650e+03,5.417127e+02
1.881221e+03,5.369418e+02
1.892792e+03,5.334207e+02
1.904363e+03,5.271222e+02
1.915933e+03,5.324858e+02
1.927504e+03,5.252955e+02
1.939075e+03,5.219594e+02
1.950646e+03,5.227551e+02
1.962217e+03,5.190541e+02
1.973787e+03,5.044106e+02
1.985358e+03,5.068185e+02
1.996929e+03,4.981820e+02
2.008500e+03,4.928102e+02
2.020071e+03,4.921024e+02
2.031641e+03,4.825055e+02
2.043212e+03,4.847858e+02
2.054783e+03,4.730799e+02
2.066354e+03,4.723650e+02
2.077925e+03,4.660265e+02
2.089496e+03,4.627299e+02
2.101066e+03,4.626204e+02
2.112637e+03,4.611685e+02
2.124208e+03,4.485256e+02
2.135779e+03,4.500209e+02
2.147350e+03,4.283823e+02
2.158920e+03,4.431713e+02
2.170491e+03,4.439093e+02
2.182062e+03,4.338520e+02
2.193633e+03,4.266269e+02
2.205204e+03,4.254901e+02
2.216774e+03,4.197436e+02
2.228345e+03,4.206425e+02
2.239916e+03,4.125541e+02
2.251487e+03,4.020635e+02
2.263058e+03,4.021047e+02
2.274628e+03,4.043070e+02
2.286199e+03,4.026703e+02
2.297770e+03,3.951294e+02
2.309341e+03,3.908196e+02
2.320912e+03,3.852515e+02
2.332482e+03,3.888807e+02
2.344053e+03,3.771711e+02
2.355624e+03,3.685626e+02
2.367195e+03,3.649088e+02
2.378766e+03,3.739013e+02
2.390336e+03,3.657119e+02
2.401907e+03,3.629770e+02
2.413478e+03,3.605758e+02
2.425049e+03,3.469439e+02
2.436620e+03,3.608456e+02
2.448190e+03,3.483618e+02
2.459761e+03,3.432531e+02
2.471332e+03,3.391004e+02
2.482903e+03,3.444879e+02
2.494474e+03,3.410403e+02
2.506044e+03,3.332408e+02
2.517615e+03,3.370865e+02
2.529186e+03,3.317048e+02
2.540757e+03,3.271261e+02
2.552328e+03,3.388754e+02
2.563898e+03,3.230370e+02
2.575469e+03,3.329109e+02
2.587040e+03,3.260673e+02
2.598611e+03,3.127361e+02
2.610182e+03,3.163709e+02
2.621752e+03,3.086406e+02
2.633323e+03,3.055693e+02
2.644894e+03,3.095607e+02
2.656465e+03,3.002423e+02
2.668036e+03,3.094869e+02
2.679606e+03,2.979682e+02
2.691177e+03,3.018708e+02
2.702748e+03,2.999850e+02
2.714319e+03,3.048995e+02
2.725890e+03,2.884303e+02
2.737460e+03,2.877436e+02
2.749031e+03,2.801133e+02
2.760602e+03,2.934542e+02
2.772173e+03,2.867917e+02
2.783744e+03,2.765404e+02
2.795314e+03,2.841845e+02
2.806885e+03,2.840932e+02
2.818456e+03,2.870815e+02
2.830027e+03,2.927057e+02
2.841598e+03,2.777213e+02
2.853168e+03,2.770905e+02
2.864739e+03,3.044417e+02
2.876310e+03,3.101720e+02
2.887881e+03,4.650813e+02
2.899452e+03,3.234512e+02
2.911022e+03,3.140501e+02
2.922593e+03,2.875969e+02
2.934164e+03,2.957384e+02
2.945735e+03,2.863026e+02
2.957306e+03,3.206694e+02
2.968876e+03,2.885149e+02
2.980447e+03,2.532557e+02
2.992018e+03,2.723234e+02
3.003589e+03,2.465598e+02
3.015160e+03,2.412643e+02
3.026730e+03,2.598067e+02
3.038301e+03,2.599770e+02
3.049872e+03,2.494605e+02
3.061443e+03,2.563846e+02
3.073014e+03,2.489856e+02
3.084584e+03,2.621700e+02
3.096155e+03,2.423606e+02
3.107726e+03,2.479487e+02
3.119297e+03,2.490758e+02
3.130868e+03,2.639408e+02
3.142438e+03,2.497404e+02
3.154009e+03,2.859748e+02
3.165580e+03,2.626930e+02
3.177151e+03,2.439261e+02
3.188722e+03,2.210688e+02
3.200292e+03,2.825100e+02
3.211863e+03,0.000000e+00
3.223434e+03,0.000000e+00
3.235005e+03,0.000000e+00
3.246576e+03,0.000000e+00
3.258146e+03,0.000000e+00
3.269717e+03,0.000000e+00
3.281288e+03,0.000000e+00
3.292859e+03,0.000000e+00
3.304430e+03,0.000000e+00
3.316000e+03,0.000000e+00
3.327571e+03,0.000000e+00
3.339142e+03,0.000000e+00
3.350713e+03,0.000000e+00
3.362284e+03,0.000000e+00
3.373854e+03,0.000000e+00
3.385425e+03,0.000000e+00
3.396996e+03,0.000000e+00
3.408567e+03,0.000000e+00
3.420138e+03,0.000000e+00
3.431708e+03,0.000000e+00
3.443279e+03,0.000000e+00
3.454850e+03,0.000000e+00
3.466421e+03,0.000000e+00
3.477992e+03,0.000000e+00
3.489563e+03,0.000000e+00
3.500169e+03,0.000000e+00