File: RAMAN_data/12022024_r1/blue fibre2.CSV
9.931763e+01,0.000000e+00
1.108884e+02,0.000000e+00
1.224592e+02,0.000000e+00
1.340300e+02,0.000000e+00
1.456008e+02,0.000000e+00
1.571716e+02,0.000000e+00
1.687424e+02,0.000000e+00
1.803132e+02,0.000000e+00
1.918840e+02,0.000000e+00
2.034548e+02,1.085548e+03
2.150256e+02,1.096582e+03
2.265964e+02,1.104119e+03
2.381673e+02,1.113868e+03
2.497381e+02,1.114313e+03
2.613088e+02,1.118320e+03
2.728796e+02,1.124521e+03
2.844504e+02,1.146249e+03
2.960212e+02,1.148101e+03
3.075920e+02,1.145341e+03
3.191628e+02,1.150506e+03
3.307336e+02,1.154635e+03
3.423044e+02,1.162307e+03
3.538752e+02,1.164785e+03
3.654461e+02,1.167694e+03
3.770169e+02,1.199414e+03
3.885877e+02,1.173592e+03
4.001585e+02,1.167934e+03
4.117293e+02,1.172012e+03
4.233001e+02,1.169025e+03
4.348709e+02,1.190365e+03
4.464417e+02,1.180465e+03
4.580125e+02,1.176710e+03
4.695833e+02,1.163902e+03
4.811541e+02,1.168391e+03
4.927249e+02,1.178332e+03
5.042957e+02,1.162858e+03
5.158665e+02,1.180253e+03
5.274373e+02,1.163813e+03
5.390081e+02,1.159914e+03
5.505789e+02,1.145513e+03
5.621497e+02,1.151924e+03
5.737205e+02,1.151479e+03
5.852913e+02,1.146099e+03
5.968621e+02,1.146764e+03
6.084329e+02,1.150280e+03
6.200037e+02,1.146017e+03
6.315745e+02,1.137647e+03
6.431453e+02,1.128406e+03
6.547161e+02,1.127353e+03
6.662869e+02,1.129566e+03
6.778577e+02,1.119691e+03
6.894285e+02,1.115736e+03
7.009993e+02,1.115556e+03
7.125701e+02,1.114553e+03
7.241409e+02,1.108699e+03
7.357117e+02,1.101190e+03
7.472825e+02,1.088837e+03
7.588533e+02,1.082222e+03
7.704241e+02,1.083967e+03
7.819949e+02,1.079067e+03
7.935657e+02,1.075355e+03
8.051365e+02,1.066238e+03
8.167073e+02,1.066786e+03
8.282781e+02,1.059583e+03
8.398489e+02,1.057154e+03
8.514197e+02,1.046407e+03
8.629905e+02,1.044605e+03
8.745613e+02,1.055961e+03
8.861321e+02,1.042924e+03
8.977029e+02,1.033340e+03
9.092737e+02,1.035203e+03
9.208445e+02,1.021300e+03
9.324153e+02,1.021418e+03
9.439861e+02,1.013162e+03
9.555569e+02,1.006814e+03
9.671277e+02,1.004345e+03
9.786985e+02,1.003123e+03
9.902693e+02,1.000207e+03
1.001840e+03,9.943438e+02
1.013411e+03,9.891355e+02
1.024982e+03,9.929075e+02
1.036552e+03,9.863058e+02
1.048123e+03,9.915279e+02
1.059694e+03,9.829471e+02
1.071265e+03,9.844667e+02
1.082836e+03,9.905912e+02
1.094406e+03,1.029581e+03
1.105977e+03,9.942603e+02
1.117548e+03,1.002561e+03
1.129119e+03,9.855088e+02
1.140690e+03,9.790299e+02
1.152261e+03,9.739405e+02
1.163831e+03,9.654040e+02
1.175402e+03,9.532513e+02
1.186973e+03,9.523534e+02
1.198544e+03,9.504768e+02
1.210115e+03,9.556682e+02
1.221685e+03,9.392969e+02
1.233256e+03,9.402930e+02
1.244827e+03,9.388845e+02
1.256398e+03,9.380605e+02
1.267969e+03,9.392718e+02
1.279539e+03,9.533933e+02
1.291110e+03,9.398769e+02
1.302681e+03,9.432396e+02
1.314252e+03,9.366244e+02
1.325823e+03,9.394852e+02
1.337393e+03,9.468416e+02
1.348964e+03,9.411927e+02
1.360535e+03,9.446406e+02
1.372106e+03,9.485721e+02
1.383677e+03,9.458305e+02
1.395247e+03,9.265368e+02
1.406818e+03,9.213104e+02
1.418389e+03,9.177411e+02
1.429960e+03,9.210815e+02
1.441531e+03,9.146243e+02
1.453101e+03,9.104211e+02
1.464672e+03,9.184017e+02
1.476243e+03,9.105138e+02
1.487814e+03,9.049982e+02
1.499385e+03,9.001996e+02
1.510955e+03,9.056788e+02
1.522526e+03,8.861563e+02
1.534097e+03,8.920707e+02
1.545668e+03,8.821813e+02
1.557239e+03,8.849799e+02
1.568809e+03,8.890206e+02
1.580380e+03,8.789803e+02
1.591951e+03,8.746287e+02
1.603522e+03,8.743461e+02
1.615093e+03,8.741639e+02
1.626663e+03,8.658774e+02
1.638234e+03,8.528757e+02
1.649805e+03,8.497499e+02
1.661376e+03,8.568441e+02
1.672947e+03,8.430114e+02
1.684517e+03,8.526823e+02
1.696088e+03,8.291107e+02
1.707659e+03,8.329930e+02
1.719230e+03,8.200023e+02
1.730801e+03,8.193307e+02
1.742371e+03,8.247161e+02
1.753942e+03,8.125570e+02
1.765513e+03,8.001953e+02
1.777084e+03,8.004207e+02
1.788655e+03,7.855472e+02
1.800225e+03,7.718357e+02
1.811796e+03,7.728347e+02
1.823367e+03,7.746584e+02
1.834938e+03,7.750912e+02
1.846509e+03,7.652480e+02
1.858079e+03,7.550440e+02
1.869650e+03,7.553821e+02
1.881221e+03,7.354988e+02
1.892792e+03,7.345491e+02
1.904363e+03,7.182828e+02
1.915933e+03,7.208718e+02
1.927504e+03,7.165104e+02
1.939075e+03,7.132067e+02
1.950646e+03,6.961512e+02
1.962217e+03,7.012992e+02
1.973787e+03,6.915905e+02
1.985358e+03,6.795886e+02
1.996929e+03,6.761279e+02
2.008500e+03,6.712149e+02
2.020071e+03,6.702748e+02
2.031641e+03,6.602436e+02
2.043212e+03,6.398177e+02
2.054783e+03,6.355189e+02
2.066354e+03,6.395427e+02
2.077925e+03,6.378199e+02
2.089496e+03,6.246515e+02
2.101066e+03,6.176879e+02
2.112637e+03,6.164727e+02
2.124208e+03,6.056050e+02
2.135779e+03,5.912676e+02
2.147350e+03,5.838842e+02
2.158920e+03,5.839405e+02
2.170491e+03,5.813199e+02
2.182062e+03,5.756195e+02
2.193633e+03,5.760188e+02
2.205204e+03,5.642513e+02
2.216774e+03,5.633363e+02
2.228345e+03,5.459908e+02
2.239916e+03,5.482072e+02
2.251487e+03,5.383747e+02
2.263058e+03,5.302103e+02
2.274628e+03,5.251668e+02
2.286199e+03,5.241335e+02
2.297770e+03,5.164011e+02
2.309341e+03,5.031605e+02
2.320912e+03,5.034279e+02
2.332482e+03,5.094071e+02
2.344053e+03,5.094142e+02
2.355624e+03,4.922573e+02
2.367195e+03,4.901877e+02
2.378766e+03,4.864007e+02
2.390336e+03,4.775282e+02
2.401907e+03,4.834586e+02
2.413478e+03,4.726736e+02
2.425049e+03,4.666843e+02
2.436620e+03,4.583242e+02
2.448190e+03,4.474884e+02
2.459761e+03,4.569879e+02
2.471332e+03,4.404613e+02
2.482903e+03,4.463354e+02
2.494474e+03,4.357030e+02
2.506044e+03,4.343262e+02
2.517615e+03,4.352153e+02
2.529186e+03,4.322856e+02
2.540757e+03,4.195132e+02
2.552328e+03,4.324356e+02
2.563898e+03,4.302887e+02
2.575469e+03,4.266548e+02
2.587040e+03,4.102890e+02
2.598611e+03,4.208590e+02
2.610182e+03,4.043782e+02
2.621752e+03,3.990290e+02
2.633323e+03,4.096942e+02
2.644894e+03,4.052930e+02
2.656465e+03,4.142155e+02
2.668036e+03,3.916624e+02
2.679606e+03,3.927842e+02
2.691177e+03,3.879710e+02
2.702748e+03,3.888926e+02
2.714319e+03,4.037436e+02
2.725890e+03,3.800216e+02
2.737460e+03,3.672757e+02
2.749031e+03,3.767231e+02
2.760602e+03,3.677729e+02
2.772173e+03,3.622850e+02
2.783744e+03,3.692685e+02
2.795314e+03,3.666074e+02
2.806885e+03,3.676999e+02
2.818456e+03,3.721073e+02
2.830027e+03,3.499847e+02
2.841598e+03,3.625718e+02
2.853168e+03,3.658676e+02
2.864739e+03,3.820560e+02
2.876310e+03,3.827138e+02
2.887881e+03,4.000991e+02
2.899452e+03,4.207343e+02
2.911022e+03,3.808575e+02
2.922593e+03,3.753112e+02
2.934164e+03,3.778802e+02
2.945735e+03,3.442591e+02
2.957306e+03,4.068697e+02
2.968876e+03,3.401982e+02
2.980447e+03,3.203099e+02
2.992018e+03,3.269017e+02
3.003589e+03,3.246120e+02
3.015160e+03,3.089949e+02
3.026730e+03,3.132661e+02
3.038301e+03,3.324564e+02
3.049872e+03,3.204484e+02
3.061443e+03,3.259969e+02
3.073014e+03,3.036090e+02
3.084584e+03,3.199305e+02
3.096155e+03,3.081727e+02
3.107726e+03,3.123769e+02
3.119297e+03,3.169248e+02
3.130868e+03,3.178493e+02
3.142438e+03,3.375778e+02
3.154009e+03,3.210814e+02
3.165580e+03,3.274994e+02
3.177151e+03,3.071057e+02
3.188722e+03,3.013808e+02
3.200292e+03,3.148372e+02
3.211863e+03,0.000000e+00
3.223434e+03,0.000000e+00
3.235005e+03,0.000000e+00
3.246576e+03,0.000000e+00
3.258146e+03,0.000000e+00
3.269717e+03,0.000000e+00
3.281288e+03,0.000000e+00
3.292859e+03,0.000000e+00
3.304430e+03,0.000000e+00
3.316000e+03,0.000000e+00
3.327571e+03,0.000000e+00
3.339142e+03,0.000000e+00
3.350713e+03,0.000000e+00
3.362284e+03,0.000000e+00
3.373854e+03,0.000000e+00
3.385425e+03,0.000000e+00
3.396996e+03,0.000000e+00
3.408567e+03,0.000000e+00
3.420138e+03,0.000000e+00
3.431708e+03,0.000000e+00
3.443279e+03,0.000000e+00
3.454850e+03,0.000000e+00
3.466421e+03,0.000000e+00
3.477992e+03,0.000000e+00
3.489563e+03,0.000000e+00
3.500169e+03,0.000000e+00