File: RAMAN_data/12022024_r1/blue frag1.CSV
9.931763e+01,0.000000e+00
1.108884e+02,0.000000e+00
1.224592e+02,0.000000e+00
1.340300e+02,0.000000e+00
1.456008e+02,0.000000e+00
1.571716e+02,0.000000e+00
1.687424e+02,0.000000e+00
1.803132e+02,0.000000e+00
1.918840e+02,0.000000e+00
2.034548e+02,1.578704e+03
2.150256e+02,1.575039e+03
2.265964e+02,1.571657e+03
2.381673e+02,1.569674e+03
2.497381e+02,1.598971e+03
2.613088e+02,1.588455e+03
2.728796e+02,1.562742e+03
2.844504e+02,1.589309e+03
2.960212e+02,1.555938e+03
3.075920e+02,1.549691e+03
3.191628e+02,1.550194e+03
3.307336e+02,1.558648e+03
3.423044e+02,1.547098e+03
3.538752e+02,1.539356e+03
3.654461e+02,1.517970e+03
3.770169e+02,1.530264e+03
3.885877e+02,1.531035e+03
4.001585e+02,1.513504e+03
4.117293e+02,1.516722e+03
4.233001e+02,1.515285e+03
4.348709e+02,1.507721e+03
4.464417e+02,1.500776e+03
4.580125e+02,1.497898e+03
4.695833e+02,1.495128e+03
4.811541e+02,1.506230e+03
4.927249e+02,1.499545e+03
5.042957e+02,1.469881e+03
5.158665e+02,1.474345e+03
5.274373e+02,1.456833e+03
5.390081e+02,1.462525e+03
5.505789e+02,1.452395e+03
5.621497e+02,1.451128e+03
5.737205e+02,1.454821e+03
5.852913e+02,1.474497e+03
5.968621e+02,1.448516e+03
6.084329e+02,1.437004e+03
6.200037e+02,1.431089e+03
6.315745e+02,1.416764e+03
6.431453e+02,1.417241e+03
6.547161e+02,1.420401e+03
6.662869e+02,1.413212e+03
6.778577e+02,1.643839e+03
6.894285e+02,1.470705e+03
7.009993e+02,1.404845e+03
7.125701e+02,1.414187e+03
7.241409e+02,1.385651e+03
7.357117e+02,1.394315e+03
7.472825e+02,1.745364e+03
7.588533e+02,1.374107e+03
7.704241e+02,1.384126e+03
7.819949e+02,1.380541e+03
7.935657e+02,1.361284e+03
8.051365e+02,1.344131e+03
8.167073e+02,1.335409e+03
8.282781e+02,1.356436e+03
8.398489e+02,1.368178e+03
8.514197e+02,1.341276e+03
8.629905e+02,1.330918e+03
8.745613e+02,1.326070e+03
8.861321e+02,1.321944e+03
8.977029e+02,1.312922e+03
9.092737e+02,1.302380e+03
9.208445e+02,1.301989e+03
9.324153e+02,1.306824e+03
9.439861e+02,1.305381e+03
9.555569e+02,1.302946e+03
9.671277e+02,1.295719e+03
9.786985e+02,1.292210e+03
9.902693e+02,1.287769e+03
1.001840e+03,1.304833e+03
1.013411e+03,1.285648e+03
1.024982e+03,1.281854e+03
1.036552e+03,1.278727e+03
1.048123e+03,1.273741e+03
1.059694e+03,1.302189e+03
1.071265e+03,1.282979e+03
1.082836e+03,1.289239e+03
1.094406e+03,1.280225e+03
1.105977e+03,1.305900e+03
1.117548e+03,1.286162e+03
1.129119e+03,1.307706e+03
1.140690e+03,1.487418e+03
1.152261e+03,1.298570e+03
1.163831e+03,1.289717e+03
1.175402e+03,1.276935e+03
1.186973e+03,1.303281e+03
1.198544e+03,1.292875e+03
1.210115e+03,1.296541e+03
1.221685e+03,1.281920e+03
1.233256e+03,1.260713e+03
1.244827e+03,1.267952e+03
1.256398e+03,1.244011e+03
1.267969e+03,1.262825e+03
1.279539e+03,1.262745e+03
1.291110e+03,1.297326e+03
1.302681e+03,1.319083e+03
1.314252e+03,1.287532e+03
1.325823e+03,1.324541e+03
1.337393e+03,1.583961e+03
1.348964e+03,1.306192e+03
1.360535e+03,1.282749e+03
1.372106e+03,1.262076e+03
1.383677e+03,1.240220e+03
1.395247e+03,1.230713e+03
1.406818e+03,1.234378e+03
1.418389e+03,1.243000e+03
1.429960e+03,1.271486e+03
1.441531e+03,1.276055e+03
1.453101e+03,1.328795e+03
1.464672e+03,1.241573e+03
1.476243e+03,1.228193e+03
1.487814e+03,1.223140e+03
1.499385e+03,1.221088e+03
1.510955e+03,1.235680e+03
1.522526e+03,1.836133e+03
1.534097e+03,1.377697e+03
1.545668e+03,1.219300e+03
1.557239e+03,1.194314e+03
1.568809e+03,1.181404e+03
1.580380e+03,1.167454e+03
1.591951e+03,1.176381e+03
1.603522e+03,1.157516e+03
1.615093e+03,1.151673e+03
1.626663e+03,1.138645e+03
1.638234e+03,1.114233e+03
1.649805e+03,1.107802e+03
1.661376e+03,1.097344e+03
1.672947e+03,1.081847e+03
1.684517e+03,1.092848e+03
1.696088e+03,1.069593e+03
1.707659e+03,1.062679e+03
1.719230e+03,1.066437e+03
1.730801e+03,1.048001e+03
1.742371e+03,1.032898e+03
1.753942e+03,1.026935e+03
1.765513e+03,1.025843e+03
1.777084e+03,1.021828e+03
1.788655e+03,1.012005e+03
1.800225e+03,1.008059e+03
1.811796e+03,1.000203e+03
1.823367e+03,9.846929e+02
1.834938e+03,9.792859e+02
1.846509e+03,9.725056e+02
1.858079e+03,9.724703e+02
1.869650e+03,9.511134e+02
1.881221e+03,9.378757e+02
1.892792e+03,9.464535e+02
1.904363e+03,9.245482e+02
1.915933e+03,9.244352e+02
1.927504e+03,9.285054e+02
1.939075e+03,9.112280e+02
1.950646e+03,9.109040e+02
1.962217e+03,9.050305e+02
1.973787e+03,8.818450e+02
1.985358e+03,8.809657e+02
1.996929e+03,8.861251e+02
2.008500e+03,8.659223e+02
2.020071e+03,8.568832e+02
2.031641e+03,8.546300e+02
2.043212e+03,8.337194e+02
2.054783e+03,8.330842e+02
2.066354e+03,8.388583e+02
2.077925e+03,8.226815e+02
2.089496e+03,8.235932e+02
2.101066e+03,8.071666e+02
2.112637e+03,7.959456e+02
2.124208e+03,7.910402e+02
2.135779e+03,8.027993e+02
2.147350e+03,7.694283e+02
2.158920e+03,7.728525e+02
2.170491e+03,7.788091e+02
2.182062e+03,7.580473e+02
2.193633e+03,7.405715e+02
2.205204e+03,7.592950e+02
2.216774e+03,7.441779e+02
2.228345e+03,7.274359e+02
2.239916e+03,7.233179e+02
2.251487e+03,7.202467e+02
2.263058e+03,7.260404e+02
2.274628e+03,7.190575e+02
2.286199e+03,7.047917e+02
2.297770e+03,7.008529e+02
2.309341e+03,6.881031e+02
2.320912e+03,6.842938e+02
2.332482e+03,6.836137e+02
2.344053e+03,6.686269e+02
2.355624e+03,6.696678e+02
2.367195e+03,6.455852e+02
2.378766e+03,6.618244e+02
2.390336e+03,6.557996e+02
2.401907e+03,6.508293e+02
2.413478e+03,6.435943e+02
2.425049e+03,6.389266e+02
2.436620e+03,6.349170e+02
2.448190e+03,6.355331e+02
2.459761e+03,6.244965e+02
2.471332e+03,6.129266e+02
2.482903e+03,6.221343e+02
2.494474e+03,6.066739e+02
2.506044e+03,6.056863e+02
2.517615e+03,6.070446e+02
2.529186e+03,6.043111e+02
2.540757e+03,5.902767e+02
2.552328e+03,5.996884e+02
2.563898e+03,5.891582e+02
2.575469e+03,5.948262e+02
2.587040e+03,5.791608e+02
2.598611e+03,5.823799e+02
2.610182e+03,5.779660e+02
2.621752e+03,5.650323e+02
2.633323e+03,5.823352e+02
2.644894e+03,5.694625e+02
2.656465e+03,5.650728e+02
2.668036e+03,5.611923e+02
2.679606e+03,5.617347e+02
2.691177e+03,5.480684e+02
2.702748e+03,5.557098e+02
2.714319e+03,5.613035e+02
2.725890e+03,5.546939e+02
2.737460e+03,5.451112e+02
2.749031e+03,5.545685e+02
2.760602e+03,5.522600e+02
2.772173e+03,5.324137e+02
2.783744e+03,5.354858e+02
2.795314e+03,5.258903e+02
2.806885e+03,5.434901e+02
2.818456e+03,5.422737e+02
2.830027e+03,5.512188e+02
2.841598e+03,5.760367e+02
2.853168e+03,6.100752e+02
2.864739e+03,5.802178e+02
2.876310e+03,6.283862e+02
2.887881e+03,6.051679e+02
2.899452e+03,6.033994e+02
2.911022e+03,5.876952e+02
2.922593e+03,5.780927e+02
2.934164e+03,5.664485e+02
2.945735e+03,5.603192e+02
2.957306e+03,5.658738e+02
2.968876e+03,5.452205e+02
2.980447e+03,5.430254e+02
2.992018e+03,5.464056e+02
3.003589e+03,5.655062e+02
3.015160e+03,5.560310e+02
3.026730e+03,5.643359e+02
3.038301e+03,5.547224e+02
3.049872e+03,5.636036e+02
3.061443e+03,5.813716e+02
3.073014e+03,5.632224e+02
3.084584e+03,5.596149e+02
3.096155e+03,6.067608e+02
3.107726e+03,6.096063e+02
3.119297e+03,6.217995e+02
3.130868e+03,6.225945e+02
3.142438e+03,6.211309e+02
3.154009e+03,6.352216e+02
3.165580e+03,6.305105e+02
3.177151e+03,6.152247e+02
3.188722e+03,6.488878e+02
3.200292e+03,6.400328e+02
3.211863e+03,0.000000e+00
3.223434e+03,0.000000e+00
3.235005e+03,0.000000e+00
3.246576e+03,0.000000e+00
3.258146e+03,0.000000e+00
3.269717e+03,0.000000e+00
3.281288e+03,0.000000e+00
3.292859e+03,0.000000e+00
3.304430e+03,0.000000e+00
3.316000e+03,0.000000e+00
3.327571e+03,0.000000e+00
3.339142e+03,0.000000e+00
3.350713e+03,0.000000e+00
3.362284e+03,0.000000e+00
3.373854e+03,0.000000e+00
3.385425e+03,0.000000e+00
3.396996e+03,0.000000e+00
3.408567e+03,0.000000e+00
3.420138e+03,0.000000e+00
3.431708e+03,0.000000e+00
3.443279e+03,0.000000e+00
3.454850e+03,0.000000e+00
3.466421e+03,0.000000e+00
3.477992e+03,0.000000e+00
3.489563e+03,0.000000e+00
3.500169e+03,0.000000e+00