File: RAMAN_data/12022024_r1/blue fibre1.CSV
9.931763e+01,0.000000e+00
1.108884e+02,0.000000e+00
1.224592e+02,0.000000e+00
1.340300e+02,0.000000e+00
1.456008e+02,0.000000e+00
1.571716e+02,0.000000e+00
1.687424e+02,0.000000e+00
1.803132e+02,0.000000e+00
1.918840e+02,0.000000e+00
2.034548e+02,2.643737e+03
2.150256e+02,2.652373e+03
2.265964e+02,2.665928e+03
2.381673e+02,2.666486e+03
2.497381e+02,2.662620e+03
2.613088e+02,2.675901e+03
2.728796e+02,2.680209e+03
2.844504e+02,2.693219e+03
2.960212e+02,2.695370e+03
3.075920e+02,2.699731e+03
3.191628e+02,2.700095e+03
3.307336e+02,2.716298e+03
3.423044e+02,2.710425e+03
3.538752e+02,2.703313e+03
3.654461e+02,2.698367e+03
3.770169e+02,2.722209e+03
3.885877e+02,2.695813e+03
4.001585e+02,2.698315e+03
4.117293e+02,2.685522e+03
4.233001e+02,2.695887e+03
4.348709e+02,2.687752e+03
4.464417e+02,2.678844e+03
4.580125e+02,2.663617e+03
4.695833e+02,2.650991e+03
4.811541e+02,2.645247e+03
4.927249e+02,2.659194e+03
5.042957e+02,2.627895e+03
5.158665e+02,2.644981e+03
5.274373e+02,2.613230e+03
5.390081e+02,2.596629e+03
5.505789e+02,2.603759e+03
5.621497e+02,2.597897e+03
5.737205e+02,2.583635e+03
5.852913e+02,2.559492e+03
5.968621e+02,2.568156e+03
6.084329e+02,2.569742e+03
6.200037e+02,2.550996e+03
6.315745e+02,2.543972e+03
6.431453e+02,2.538891e+03
6.547161e+02,2.522424e+03
6.662869e+02,2.509913e+03
6.778577e+02,2.480851e+03
6.894285e+02,2.480800e+03
7.009993e+02,2.472348e+03
7.125701e+02,2.456854e+03
7.241409e+02,2.453675e+03
7.357117e+02,2.438228e+03
7.472825e+02,2.424094e+03
7.588533e+02,2.412856e+03
7.704241e+02,2.405417e+03
7.819949e+02,2.397556e+03
7.935657e+02,2.376327e+03
8.051365e+02,2.365182e+03
8.167073e+02,2.357146e+03
8.282781e+02,2.341353e+03
8.398489e+02,2.337847e+03
8.514197e+02,2.326093e+03
8.629905e+02,2.314821e+03
8.745613e+02,2.307200e+03
8.861321e+02,2.294965e+03
8.977029e+02,2.270704e+03
9.092737e+02,2.266803e+03
9.208445e+02,2.242082e+03
9.324153e+02,2.250143e+03
9.439861e+02,2.219395e+03
9.555569e+02,2.204176e+03
9.671277e+02,2.213155e+03
9.786985e+02,2.200111e+03
9.902693e+02,2.183336e+03
1.001840e+03,2.170938e+03
1.013411e+03,2.165690e+03
1.024982e+03,2.154216e+03
1.036552e+03,2.151823e+03
1.048123e+03,2.135016e+03
1.059694e+03,2.133466e+03
1.071265e+03,2.141844e+03
1.082836e+03,2.138203e+03
1.094406e+03,2.143976e+03
1.105977e+03,2.119809e+03
1.117548e+03,2.119073e+03
1.129119e+03,2.110579e+03
1.140690e+03,2.096757e+03
1.152261e+03,2.087026e+03
1.163831e+03,2.077221e+03
1.175402e+03,2.062006e+03
1.186973e+03,2.056194e+03
1.198544e+03,2.058887e+03
1.210115e+03,2.040115e+03
1.221685e+03,2.034414e+03
1.233256e+03,2.020108e+03
1.244827e+03,2.025608e+03
1.256398e+03,2.026628e+03
1.267969e+03,2.003070e+03
1.279539e+03,2.030944e+03
1.291110e+03,2.008576e+03
1.302681e+03,1.995405e+03
1.314252e+03,1.998050e+03
1.325823e+03,1.993667e+03
1.337393e+03,1.998204e+03
1.348964e+03,1.975157e+03
1.360535e+03,1.961467e+03
1.372106e+03,1.974388e+03
1.383677e+03,1.965424e+03
1.395247e+03,1.942414e+03
1.406818e+03,1.924280e+03
1.418389e+03,1.929791e+03
1.429960e+03,1.920720e+03
1.441531e+03,1.911078e+03
1.453101e+03,1.898320e+03
1.464672e+03,1.892117e+03
1.476243e+03,1.897098e+03
1.487814e+03,1.876534e+03
1.499385e+03,1.868437e+03
1.510955e+03,1.854990e+03
1.522526e+03,1.851254e+03
1.534097e+03,1.839772e+03
1.545668e+03,1.839629e+03
1.557239e+03,1.838892e+03
1.568809e+03,1.843286e+03
1.580380e+03,1.831999e+03
1.591951e+03,1.815119e+03
1.603522e+03,1.804115e+03
1.615093e+03,1.802184e+03
1.626663e+03,1.781705e+03
1.638234e+03,1.767078e+03
1.649805e+03,1.753587e+03
1.661376e+03,1.736180e+03
1.672947e+03,1.725721e+03
1.684517e+03,1.709212e+03
1.696088e+03,1.711004e+03
1.707659e+03,1.695352e+03
1.719230e+03,1.686517e+03
1.730801e+03,1.678525e+03
1.742371e+03,1.666564e+03
1.753942e+03,1.654469e+03
1.765513e+03,1.652573e+03
1.777084e+03,1.613692e+03
1.788655e+03,1.604604e+03
1.800225e+03,1.597816e+03
1.811796e+03,1.597556e+03
1.823367e+03,1.574515e+03
1.834938e+03,1.573881e+03
1.846509e+03,1.561682e+03
1.858079e+03,1.537120e+03
1.869650e+03,1.536482e+03
1.881221e+03,1.522482e+03
1.892792e+03,1.519518e+03
1.904363e+03,1.492641e+03
1.915933e+03,1.486649e+03
1.927504e+03,1.464519e+03
1.939075e+03,1.477796e+03
1.950646e+03,1.463411e+03
1.962217e+03,1.432857e+03
1.973787e+03,1.419666e+03
1.985358e+03,1.400330e+03
1.996929e+03,1.406314e+03
2.008500e+03,1.383895e+03
2.020071e+03,1.379641e+03
2.031641e+03,1.355544e+03
2.043212e+03,1.344019e+03
2.054783e+03,1.330459e+03
2.066354e+03,1.315780e+03
2.077925e+03,1.308302e+03
2.089496e+03,1.304833e+03
2.101066e+03,1.293045e+03
2.112637e+03,1.263659e+03
2.124208e+03,1.256264e+03
2.135779e+03,1.232110e+03
2.147350e+03,1.241927e+03
2.158920e+03,1.227409e+03
2.170491e+03,1.223902e+03
2.182062e+03,1.187964e+03
2.193633e+03,1.179711e+03
2.205204e+03,1.169147e+03
2.216774e+03,1.163131e+03
2.228345e+03,1.156485e+03
2.239916e+03,1.144661e+03
2.251487e+03,1.114509e+03
2.263058e+03,1.118278e+03
2.274628e+03,1.103527e+03
2.286199e+03,1.091383e+03
2.297770e+03,1.093106e+03
2.309341e+03,1.068369e+03
2.320912e+03,1.064823e+03
2.332482e+03,1.051211e+03
2.344053e+03,1.032230e+03
2.355624e+03,1.016958e+03
2.367195e+03,1.028952e+03
2.378766e+03,1.006132e+03
2.390336e+03,1.004025e+03
2.401907e+03,9.857343e+02
2.413478e+03,9.687715e+02
2.425049e+03,9.543132e+02
2.436620e+03,9.472630e+02
2.448190e+03,9.588146e+02
2.459761e+03,9.447100e+02
2.471332e+03,9.433613e+02
2.482903e+03,9.222150e+02
2.494474e+03,9.240508e+02
2.506044e+03,9.185707e+02
2.517615e+03,9.092868e+02
2.529186e+03,8.952789e+02
2.540757e+03,8.759124e+02
2.552328e+03,8.908351e+02
2.563898e+03,8.955789e+02
2.575469e+03,8.669820e+02
2.587040e+03,8.512855e+02
2.598611e+03,8.665204e+02
2.610182e+03,8.590688e+02
2.621752e+03,8.550234e+02
2.633323e+03,8.366695e+02
2.644894e+03,8.183625e+02
2.656465e+03,8.359773e+02
2.668036e+03,8.253558e+02
2.679606e+03,8.093937e+02
2.691177e+03,7.959083e+02
2.702748e+03,8.026207e+02
2.714319e+03,8.147260e+02
2.725890e+03,7.857930e+02
2.737460e+03,8.005424e+02
2.749031e+03,7.893280e+02
2.760602e+03,7.740476e+02
2.772173e+03,7.803967e+02
2.783744e+03,7.543759e+02
2.795314e+03,7.407766e+02
2.806885e+03,7.445202e+02
2.818456e+03,7.288997e+02
2.830027e+03,7.477550e+02
2.841598e+03,7.571053e+02
2.853168e+03,7.392147e+02
2.864739e+03,7.541422e+02
2.876310e+03,7.445021e+02
2.887881e+03,7.349231e+02
2.899452e+03,7.638172e+02
2.911022e+03,7.641769e+02
2.922593e+03,7.370377e+02
2.934164e+03,7.346077e+02
2.945735e+03,7.211482e+02
2.957306e+03,7.429020e+02
2.968876e+03,6.901524e+02
2.980447e+03,6.784656e+02
2.992018e+03,6.932629e+02
3.003589e+03,6.726303e+02
3.015160e+03,6.669283e+02
3.026730e+03,6.595066e+02
3.038301e+03,6.731457e+02
3.049872e+03,6.618879e+02
3.061443e+03,6.541454e+02
3.073014e+03,6.363951e+02
3.084584e+03,6.510400e+02
3.096155e+03,6.267940e+02
3.107726e+03,6.426735e+02
3.119297e+03,6.484621e+02
3.130868e+03,6.666405e+02
3.142438e+03,6.608116e+02
3.154009e+03,6.896602e+02
3.165580e+03,6.530038e+02
3.177151e+03,6.399631e+02
3.188722e+03,6.389231e+02
3.200292e+03,6.479012e+02
3.211863e+03,0.000000e+00
3.223434e+03,0.000000e+00
3.235005e+03,0.000000e+00
3.246576e+03,0.000000e+00
3.258146e+03,0.000000e+00
3.269717e+03,0.000000e+00
3.281288e+03,0.000000e+00
3.292859e+03,0.000000e+00
3.304430e+03,0.000000e+00
3.316000e+03,0.000000e+00
3.327571e+03,0.000000e+00
3.339142e+03,0.000000e+00
3.350713e+03,0.000000e+00
3.362284e+03,0.000000e+00
3.373854e+03,0.000000e+00
3.385425e+03,0.000000e+00
3.396996e+03,0.000000e+00
3.408567e+03,0.000000e+00
3.420138e+03,0.000000e+00
3.431708e+03,0.000000e+00
3.443279e+03,0.000000e+00
3.454850e+03,0.000000e+00
3.466421e+03,0.000000e+00
3.477992e+03,0.000000e+00
3.489563e+03,0.000000e+00
3.500169e+03,0.000000e+00