File: RAMAN_data/12022024_r1/green frag1.CSV
9.931763e+01,0.000000e+00
1.108884e+02,0.000000e+00
1.224592e+02,0.000000e+00
1.340300e+02,0.000000e+00
1.456008e+02,0.000000e+00
1.571716e+02,0.000000e+00
1.687424e+02,0.000000e+00
1.803132e+02,0.000000e+00
1.918840e+02,0.000000e+00
2.034548e+02,1.888672e+03
2.150256e+02,1.860961e+03
2.265964e+02,1.836545e+03
2.381673e+02,1.832960e+03
2.497381e+02,1.811248e+03
2.613088e+02,1.769886e+03
2.728796e+02,1.758776e+03
2.844504e+02,1.742232e+03
2.960212e+02,1.704609e+03
3.075920e+02,1.689984e+03
3.191628e+02,1.659686e+03
3.307336e+02,1.652727e+03
3.423044e+02,1.625631e+03
3.538752e+02,1.619022e+03
3.654461e+02,1.591796e+03
3.770169e+02,1.576115e+03
3.885877e+02,1.550318e+03
4.001585e+02,1.533662e+03
4.117293e+02,1.518301e+03
4.233001e+02,1.509971e+03
4.348709e+02,1.487292e+03
4.464417e+02,1.470500e+03
4.580125e+02,1.462631e+03
4.695833e+02,1.433384e+03
4.811541e+02,1.448039e+03
4.927249e+02,1.416913e+03
5.042957e+02,1.392835e+03
5.158665e+02,1.388585e+03
5.274373e+02,1.376296e+03
5.390081e+02,1.349871e+03
5.505789e+02,1.348400e+03
5.621497e+02,1.325966e+03
5.737205e+02,1.317176e+03
5.852913e+02,1.301846e+03
5.968621e+02,1.299557e+03
6.084329e+02,1.297297e+03
6.200037e+02,1.266798e+03
6.315745e+02,1.269654e+03
6.431453e+02,1.250590e+03
6.547161e+02,1.243321e+03
6.662869e+02,1.230868e+03
6.778577e+02,1.263598e+03
6.894285e+02,1.201867e+03
7.009993e+02,1.204795e+03
7.125701e+02,1.198361e+03
7.241409e+02,1.185848e+03
7.357117e+02,1.184637e+03
7.472825e+02,1.197676e+03
7.588533e+02,1.151382e+03
7.704241e+02,1.147276e+03
7.819949e+02,1.139506e+03
7.935657e+02,1.129032e+03
8.051365e+02,1.123637e+03
8.167073e+02,1.113732e+03
8.282781e+02,1.103281e+03
8.398489e+02,1.093582e+03
8.514197e+02,1.091326e+03
8.629905e+02,1.078336e+03
8.745613e+02,1.065857e+03
8.861321e+02,1.069111e+03
8.977029e+02,1.051168e+03
9.092737e+02,1.045688e+03
9.208445e+02,1.028871e+03
9.324153e+02,1.012760e+03
9.439861e+02,1.017243e+03
9.555569e+02,1.013826e+03
9.671277e+02,9.944099e+02
9.786985e+02,1.000625e+03
9.902693e+02,9.764128e+02
1.001840e+03,9.703572e+02
1.013411e+03,9.545141e+02
1.024982e+03,9.578231e+02
1.036552e+03,9.510500e+02
1.048123e+03,9.488646e+02
1.059694e+03,9.864808e+02
1.071265e+03,9.368541e+02
1.082836e+03,9.347500e+02
1.094406e+03,9.309689e+02
1.105977e+03,9.249537e+02
1.117548e+03,9.140520e+02
1.129119e+03,9.360320e+02
1.140690e+03,9.141083e+02
1.152261e+03,8.861912e+02
1.163831e+03,8.846715e+02
1.175402e+03,8.781884e+02
1.186973e+03,8.715917e+02
1.198544e+03,8.681541e+02
1.210115e+03,8.686996e+02
1.221685e+03,8.496174e+02
1.233256e+03,8.382504e+02
1.244827e+03,8.427063e+02
1.256398e+03,8.373671e+02
1.267969e+03,8.266788e+02
1.279539e+03,8.263792e+02
1.291110e+03,8.856739e+02
1.302681e+03,8.357783e+02
1.314252e+03,8.152874e+02
1.325823e+03,8.112148e+02
1.337393e+03,8.391594e+02
1.348964e+03,8.012870e+02
1.360535e+03,7.897906e+02
1.372106e+03,7.857623e+02
1.383677e+03,7.758661e+02
1.395247e+03,7.752509e+02
1.406818e+03,7.663301e+02
1.418389e+03,7.776755e+02
1.429960e+03,7.870345e+02
1.441531e+03,7.969050e+02
1.453101e+03,7.823850e+02
1.464672e+03,7.675330e+02
1.476243e+03,7.416420e+02
1.487814e+03,7.254200e+02
1.499385e+03,7.199975e+02
1.510955e+03,7.177386e+02
1.522526e+03,7.324354e+02
1.534097e+03,7.300023e+02
1.545668e+03,7.047672e+02
1.557239e+03,6.974387e+02
1.568809e+03,6.936681e+02
1.580380e+03,6.927777e+02
1.591951e+03,6.796501e+02
1.603522e+03,6.794387e+02
1.615093e+03,6.694218e+02
1.626663e+03,6.685462e+02
1.638234e+03,6.602730e+02
1.649805e+03,6.522007e+02
1.661376e+03,6.476461e+02
1.672947e+03,6.357512e+02
1.684517e+03,6.344011e+02
1.696088e+03,6.325801e+02
1.707659e+03,6.124631e+02
1.719230e+03,6.171174e+02
1.730801e+03,6.067337e+02
1.742371e+03,6.173194e+02
1.753942e+03,6.043201e+02
1.765513e+03,5.994728e+02
1.777084e+03,5.898302e+02
1.788655e+03,5.887255e+02
1.800225e+03,5.800113e+02
1.811796e+03,5.766284e+02
1.823367e+03,5.696246e+02
1.834938e+03,5.737625e+02
1.846509e+03,5.637479e+02
1.858079e+03,5.635214e+02
1.869650e+03,5.409523e+02
1.881221e+03,5.434450e+02
1.892792e+03,5.413083e+02
1.904363e+03,5.338307e+02
1.915933e+03,5.256821e+02
1.927504e+03,5.236267e+02
1.939075e+03,5.196751e+02
1.950646e+03,5.178199e+02
1.962217e+03,5.115910e+02
1.973787e+03,5.104055e+02
1.985358e+03,5.063362e+02
1.996929e+03,4.925189e+02
2.008500e+03,4.937169e+02
2.020071e+03,4.814464e+02
2.031641e+03,4.858434e+02
2.043212e+03,4.769035e+02
2.054783e+03,4.778572e+02
2.066354e+03,4.633507e+02
2.077925e+03,4.604347e+02
2.089496e+03,4.614833e+02
2.101066e+03,4.440908e+02
2.112637e+03,4.447335e+02
2.124208e+03,4.420869e+02
2.135779e+03,4.359223e+02
2.147350e+03,4.252702e+02
2.158920e+03,4.256312e+02
2.170491e+03,4.210455e+02
2.182062e+03,4.172262e+02
2.193633e+03,4.142846e+02
2.205204e+03,4.110464e+02
2.216774e+03,4.058045e+02
2.228345e+03,4.001280e+02
2.239916e+03,3.908218e+02
2.251487e+03,3.913910e+02
2.263058e+03,3.913940e+02
2.274628e+03,3.824720e+02
2.286199e+03,3.818431e+02
2.297770e+03,3.810789e+02
2.309341e+03,3.700652e+02
2.320912e+03,3.605332e+02
2.332482e+03,3.634797e+02
2.344053e+03,3.540003e+02
2.355624e+03,3.569775e+02
2.367195e+03,3.501246e+02
2.378766e+03,3.425372e+02
2.390336e+03,3.466243e+02
2.401907e+03,3.377982e+02
2.413478e+03,3.323595e+02
2.425049e+03,3.206667e+02
2.436620e+03,3.289601e+02
2.448190e+03,3.266324e+02
2.459761e+03,3.246819e+02
2.471332e+03,3.153695e+02
2.482903e+03,3.155497e+02
2.494474e+03,3.105124e+02
2.506044e+03,3.115784e+02
2.517615e+03,3.135053e+02
2.529186e+03,3.171747e+02
2.540757e+03,3.097002e+02
2.552328e+03,3.042805e+02
2.563898e+03,2.947933e+02
2.575469e+03,3.113798e+02
2.587040e+03,2.992985e+02
2.598611e+03,2.941848e+02
2.610182e+03,2.927013e+02
2.621752e+03,2.961329e+02
2.633323e+03,2.931191e+02
2.644894e+03,2.863939e+02
2.656465e+03,2.900464e+02
2.668036e+03,2.806915e+02
2.679606e+03,2.790461e+02
2.691177e+03,2.852938e+02
2.702748e+03,2.912224e+02
2.714319e+03,2.951922e+02
2.725890e+03,2.802794e+02
2.737460e+03,2.669649e+02
2.749031e+03,2.754342e+02
2.760602e+03,2.739747e+02
2.772173e+03,2.626631e+02
2.783744e+03,2.732525e+02
2.795314e+03,2.693057e+02
2.806885e+03,2.683768e+02
2.818456e+03,2.645727e+02
2.830027e+03,2.927635e+02
2.841598e+03,4.035802e+02
2.853168e+03,4.135372e+02
2.864739e+03,3.516566e+02
2.876310e+03,4.503651e+02
2.887881e+03,3.872209e+02
2.899452e+03,3.758403e+02
2.911022e+03,3.194414e+02
2.922593e+03,3.186447e+02
2.934164e+03,3.048393e+02
2.945735e+03,2.741789e+02
2.957306e+03,3.156729e+02
2.968876e+03,2.584937e+02
2.980447e+03,2.618451e+02
2.992018e+03,2.433753e+02
3.003589e+03,2.575262e+02
3.015160e+03,2.481318e+02
3.026730e+03,2.362899e+02
3.038301e+03,2.401481e+02
3.049872e+03,2.234146e+02
3.061443e+03,2.469743e+02
3.073014e+03,2.383575e+02
3.084584e+03,2.311793e+02
3.096155e+03,2.325834e+02
3.107726e+03,2.557800e+02
3.119297e+03,2.667293e+02
3.130868e+03,2.564993e+02
3.142438e+03,2.429895e+02
3.154009e+03,2.546723e+02
3.165580e+03,2.619181e+02
3.177151e+03,2.511395e+02
3.188722e+03,2.575127e+02
3.200292e+03,2.747632e+02
3.211863e+03,0.000000e+00
3.223434e+03,0.000000e+00
3.235005e+03,0.000000e+00
3.246576e+03,0.000000e+00
3.258146e+03,0.000000e+00
3.269717e+03,0.000000e+00
3.281288e+03,0.000000e+00
3.292859e+03,0.000000e+00
3.304430e+03,0.000000e+00
3.316000e+03,0.000000e+00
3.327571e+03,0.000000e+00
3.339142e+03,0.000000e+00
3.350713e+03,0.000000e+00
3.362284e+03,0.000000e+00
3.373854e+03,0.000000e+00
3.385425e+03,0.000000e+00
3.396996e+03,0.000000e+00
3.408567e+03,0.000000e+00
3.420138e+03,0.000000e+00
3.431708e+03,0.000000e+00
3.443279e+03,0.000000e+00
3.454850e+03,0.000000e+00
3.466421e+03,0.000000e+00
3.477992e+03,0.000000e+00
3.489563e+03,0.000000e+00
3.500169e+03,0.000000e+00