File: RAMAN_data/12022024_r1/red fibre2.CSV
9.931763e+01,0.000000e+00
1.108884e+02,0.000000e+00
1.224592e+02,0.000000e+00
1.340300e+02,0.000000e+00
1.456008e+02,0.000000e+00
1.571716e+02,0.000000e+00
1.687424e+02,0.000000e+00
1.803132e+02,0.000000e+00
1.918840e+02,0.000000e+00
2.034548e+02,2.276431e+03
2.150256e+02,2.281522e+03
2.265964e+02,2.297104e+03
2.381673e+02,2.297693e+03
2.497381e+02,2.299195e+03
2.613088e+02,2.314195e+03
2.728796e+02,2.314601e+03
2.844504e+02,2.319230e+03
2.960212e+02,2.324259e+03
3.075920e+02,2.329619e+03
3.191628e+02,2.334775e+03
3.307336e+02,2.343181e+03
3.423044e+02,2.338572e+03
3.538752e+02,2.335230e+03
3.654461e+02,2.344181e+03
3.770169e+02,2.368168e+03
3.885877e+02,2.337490e+03
4.001585e+02,2.319445e+03
4.117293e+02,2.326048e+03
4.233001e+02,2.324414e+03
4.348709e+02,2.333242e+03
4.464417e+02,2.318532e+03
4.580125e+02,2.322073e+03
4.695833e+02,2.311968e+03
4.811541e+02,2.303501e+03
4.927249e+02,2.297861e+03
5.042957e+02,2.284220e+03
5.158665e+02,2.290437e+03
5.274373e+02,2.280512e+03
5.390081e+02,2.265559e+03
5.505789e+02,2.262721e+03
5.621497e+02,2.252950e+03
5.737205e+02,2.248870e+03
5.852913e+02,2.242551e+03
5.968621e+02,2.243847e+03
6.084329e+02,2.230620e+03
6.200037e+02,2.219929e+03
6.315745e+02,2.207081e+03
6.431453e+02,2.200274e+03
6.547161e+02,2.193850e+03
6.662869e+02,2.174575e+03
6.778577e+02,2.167086e+03
6.894285e+02,2.150315e+03
7.009993e+02,2.146601e+03
7.125701e+02,2.140694e+03
7.241409e+02,2.129586e+03
7.357117e+02,2.123351e+03
7.472825e+02,2.106473e+03
7.588533e+02,2.108787e+03
7.704241e+02,2.092472e+03
7.819949e+02,2.083577e+03
7.935657e+02,2.076007e+03
8.051365e+02,2.051077e+03
8.167073e+02,2.039791e+03
8.282781e+02,2.017742e+03
8.398489e+02,2.029691e+03
8.514197e+02,2.004705e+03
8.629905e+02,2.004531e+03
8.745613e+02,1.971605e+03
8.861321e+02,1.992177e+03
8.977029e+02,1.976291e+03
9.092737e+02,1.950345e+03
9.208445e+02,1.931382e+03
9.324153e+02,1.925928e+03
9.439861e+02,1.902044e+03
9.555569e+02,1.909684e+03
9.671277e+02,1.899807e+03
9.786985e+02,1.889792e+03
9.902693e+02,1.879313e+03
1.001840e+03,1.862967e+03
1.013411e+03,1.850447e+03
1.024982e+03,1.836669e+03
1.036552e+03,1.831596e+03
1.048123e+03,1.827060e+03
1.059694e+03,1.822221e+03
1.071265e+03,1.826865e+03
1.082836e+03,1.810228e+03
1.094406e+03,1.832407e+03
1.105977e+03,1.796149e+03
1.117548e+03,1.807021e+03
1.129119e+03,1.760569e+03
1.140690e+03,1.753110e+03
1.152261e+03,1.761186e+03
1.163831e+03,1.718509e+03
1.175402e+03,1.705852e+03
1.186973e+03,1.710288e+03
1.198544e+03,1.702119e+03
1.210115e+03,1.690817e+03
1.221685e+03,1.674231e+03
1.233256e+03,1.670173e+03
1.244827e+03,1.662955e+03
1.256398e+03,1.656922e+03
1.267969e+03,1.653724e+03
1.279539e+03,1.634999e+03
1.291110e+03,1.641646e+03
1.302681e+03,1.622381e+03
1.314252e+03,1.611726e+03
1.325823e+03,1.625319e+03
1.337393e+03,1.606180e+03
1.348964e+03,1.608395e+03
1.360535e+03,1.595878e+03
1.372106e+03,1.587712e+03
1.383677e+03,1.583566e+03
1.395247e+03,1.551949e+03
1.406818e+03,1.555924e+03
1.418389e+03,1.541149e+03
1.429960e+03,1.529720e+03
1.441531e+03,1.511523e+03
1.453101e+03,1.515740e+03
1.464672e+03,1.518137e+03
1.476243e+03,1.494194e+03
1.487814e+03,1.474464e+03
1.499385e+03,1.461965e+03
1.510955e+03,1.454294e+03
1.522526e+03,1.449193e+03
1.534097e+03,1.447241e+03
1.545668e+03,1.433402e+03
1.557239e+03,1.438694e+03
1.568809e+03,1.430128e+03
1.580380e+03,1.418915e+03
1.591951e+03,1.403045e+03
1.603522e+03,1.405807e+03
1.615093e+03,1.388635e+03
1.626663e+03,1.380698e+03
1.638234e+03,1.364762e+03
1.649805e+03,1.359384e+03
1.661376e+03,1.352084e+03
1.672947e+03,1.324011e+03
1.684517e+03,1.314375e+03
1.696088e+03,1.316314e+03
1.707659e+03,1.295200e+03
1.719230e+03,1.291483e+03
1.730801e+03,1.277117e+03
1.742371e+03,1.261454e+03
1.753942e+03,1.258951e+03
1.765513e+03,1.256493e+03
1.777084e+03,1.238591e+03
1.788655e+03,1.233990e+03
1.800225e+03,1.239033e+03
1.811796e+03,1.215098e+03
1.823367e+03,1.197566e+03
1.834938e+03,1.191974e+03
1.846509e+03,1.184880e+03
1.858079e+03,1.169376e+03
1.869650e+03,1.147973e+03
1.881221e+03,1.151853e+03
1.892792e+03,1.136057e+03
1.904363e+03,1.111542e+03
1.915933e+03,1.115648e+03
1.927504e+03,1.097157e+03
1.939075e+03,1.096902e+03
1.950646e+03,1.084331e+03
1.962217e+03,1.081694e+03
1.973787e+03,1.072156e+03
1.985358e+03,1.062635e+03
1.996929e+03,1.042938e+03
2.008500e+03,1.027900e+03
2.020071e+03,1.018708e+03
2.031641e+03,1.007578e+03
2.043212e+03,9.939684e+02
2.054783e+03,9.936752e+02
2.066354e+03,9.730155e+02
2.077925e+03,9.665981e+02
2.089496e+03,9.561342e+02
2.101066e+03,9.546511e+02
2.112637e+03,9.377253e+02
2.124208e+03,9.383002e+02
2.135779e+03,9.205362e+02
2.147350e+03,8.946693e+02
2.158920e+03,9.007037e+02
2.170491e+03,8.953052e+02
2.182062e+03,8.785726e+02
2.193633e+03,8.660767e+02
2.205204e+03,8.594724e+02
2.216774e+03,8.592183e+02
2.228345e+03,8.314784e+02
2.239916e+03,8.291698e+02
2.251487e+03,8.213245e+02
2.263058e+03,8.095010e+02
2.274628e+03,7.929239e+02
2.286199e+03,7.918382e+02
2.297770e+03,7.745112e+02
2.309341e+03,7.614880e+02
2.320912e+03,7.711271e+02
2.332482e+03,7.470002e+02
2.344053e+03,7.515401e+02
2.355624e+03,7.377149e+02
2.367195e+03,7.226468e+02
2.378766e+03,7.173320e+02
2.390336e+03,7.078635e+02
2.401907e+03,7.107609e+02
2.413478e+03,6.909385e+02
2.425049e+03,6.843640e+02
2.436620e+03,6.707484e+02
2.448190e+03,6.657079e+02
2.459761e+03,6.552718e+02
2.471332e+03,6.475895e+02
2.482903e+03,6.605946e+02
2.494474e+03,6.400633e+02
2.506044e+03,6.461494e+02
2.517615e+03,6.351414e+02
2.529186e+03,6.224162e+02
2.540757e+03,6.181871e+02
2.552328e+03,6.343524e+02
2.563898e+03,6.333516e+02
2.575469e+03,6.188076e+02
2.587040e+03,5.861870e+02
2.598611e+03,6.056617e+02
2.610182e+03,5.863354e+02
2.621752e+03,5.863904e+02
2.633323e+03,5.680069e+02
2.644894e+03,5.620820e+02
2.656465e+03,5.713448e+02
2.668036e+03,5.699382e+02
2.679606e+03,5.544291e+02
2.691177e+03,5.551488e+02
2.702748e+03,5.408329e+02
2.714319e+03,5.373687e+02
2.725890e+03,5.310878e+02
2.737460e+03,5.454105e+02
2.749031e+03,5.346146e+02
2.760602e+03,5.245103e+02
2.772173e+03,5.280596e+02
2.783744e+03,5.419766e+02
2.795314e+03,5.213518e+02
2.806885e+03,5.135302e+02
2.818456e+03,5.046407e+02
2.830027e+03,5.208702e+02
2.841598e+03,5.112707e+02
2.853168e+03,5.212086e+02
2.864739e+03,5.252660e+02
2.876310e+03,5.079288e+02
2.887881e+03,5.461201e+02
2.899452e+03,5.517598e+02
2.911022e+03,5.376312e+02
2.922593e+03,5.106534e+02
2.934164e+03,5.205329e+02
2.945735e+03,5.201379e+02
2.957306e+03,5.277164e+02
2.968876e+03,4.726085e+02
2.980447e+03,4.851001e+02
2.992018e+03,4.612350e+02
3.003589e+03,4.474266e+02
3.015160e+03,4.430102e+02
3.026730e+03,4.499607e+02
3.038301e+03,4.571381e+02
3.049872e+03,4.776571e+02
3.061443e+03,4.292032e+02
3.073014e+03,4.295039e+02
3.084584e+03,4.406143e+02
3.096155e+03,4.559755e+02
3.107726e+03,4.450506e+02
3.119297e+03,4.372226e+02
3.130868e+03,4.631483e+02
3.142438e+03,4.517832e+02
3.154009e+03,4.713956e+02
3.165580e+03,4.381997e+02
3.177151e+03,4.364679e+02
3.188722e+03,4.230508e+02
3.200292e+03,4.619307e+02
3.211863e+03,0.000000e+00
3.223434e+03,0.000000e+00
3.235005e+03,0.000000e+00
3.246576e+03,0.000000e+00
3.258146e+03,0.000000e+00
3.269717e+03,0.000000e+00
3.281288e+03,0.000000e+00
3.292859e+03,0.000000e+00
3.304430e+03,0.000000e+00
3.316000e+03,0.000000e+00
3.327571e+03,0.000000e+00
3.339142e+03,0.000000e+00
3.350713e+03,0.000000e+00
3.362284e+03,0.000000e+00
3.373854e+03,0.000000e+00
3.385425e+03,0.000000e+00
3.396996e+03,0.000000e+00
3.408567e+03,0.000000e+00
3.420138e+03,0.000000e+00
3.431708e+03,0.000000e+00
3.443279e+03,0.000000e+00
3.454850e+03,0.000000e+00
3.466421e+03,0.000000e+00
3.477992e+03,0.000000e+00
3.489563e+03,0.000000e+00
3.500169e+03,0.000000e+00