File: RAMAN_data/12022024_r1/red fibre1.CSV
9.931763e+01,0.000000e+00
1.108884e+02,0.000000e+00
1.224592e+02,0.000000e+00
1.340300e+02,0.000000e+00
1.456008e+02,0.000000e+00
1.571716e+02,0.000000e+00
1.687424e+02,0.000000e+00
1.803132e+02,0.000000e+00
1.918840e+02,0.000000e+00
2.034548e+02,1.574844e+03
2.150256e+02,1.583542e+03
2.265964e+02,1.579243e+03
2.381673e+02,1.584643e+03
2.497381e+02,1.592563e+03
2.613088e+02,1.587797e+03
2.728796e+02,1.609987e+03
2.844504e+02,1.616381e+03
2.960212e+02,1.614685e+03
3.075920e+02,1.605717e+03
3.191628e+02,1.626717e+03
3.307336e+02,1.627365e+03
3.423044e+02,1.619716e+03
3.538752e+02,1.628289e+03
3.654461e+02,1.632457e+03
3.770169e+02,1.659422e+03
3.885877e+02,1.620206e+03
4.001585e+02,1.618607e+03
4.117293e+02,1.622443e+03
4.233001e+02,1.622468e+03
4.348709e+02,1.644931e+03
4.464417e+02,1.623958e+03
4.580125e+02,1.618342e+03
4.695833e+02,1.606254e+03
4.811541e+02,1.610815e+03
4.927249e+02,1.607511e+03
5.042957e+02,1.598380e+03
5.158665e+02,1.609827e+03
5.274373e+02,1.592355e+03
5.390081e+02,1.575258e+03
5.505789e+02,1.577737e+03
5.621497e+02,1.578750e+03
5.737205e+02,1.565820e+03
5.852913e+02,1.558688e+03
5.968621e+02,1.560393e+03
6.084329e+02,1.545756e+03
6.200037e+02,1.541204e+03
6.315745e+02,1.543260e+03
6.431453e+02,1.535891e+03
6.547161e+02,1.526881e+03
6.662869e+02,1.536066e+03
6.778577e+02,1.510084e+03
6.894285e+02,1.502730e+03
7.009993e+02,1.505915e+03
7.125701e+02,1.507157e+03
7.241409e+02,1.481521e+03
7.357117e+02,1.463918e+03
7.472825e+02,1.476701e+03
7.588533e+02,1.465983e+03
7.704241e+02,1.453516e+03
7.819949e+02,1.446669e+03
7.935657e+02,1.436752e+03
8.051365e+02,1.429029e+03
8.167073e+02,1.414713e+03
8.282781e+02,1.412923e+03
8.398489e+02,1.406787e+03
8.514197e+02,1.390884e+03
8.629905e+02,1.390872e+03
8.745613e+02,1.385351e+03
8.861321e+02,1.396237e+03
8.977029e+02,1.367039e+03
9.092737e+02,1.359242e+03
9.208445e+02,1.357078e+03
9.324153e+02,1.335257e+03
9.439861e+02,1.331644e+03
9.555569e+02,1.324353e+03
9.671277e+02,1.318867e+03
9.786985e+02,1.308341e+03
9.902693e+02,1.295664e+03
1.001840e+03,1.292074e+03
1.013411e+03,1.282836e+03
1.024982e+03,1.274667e+03
1.036552e+03,1.270474e+03
1.048123e+03,1.271907e+03
1.059694e+03,1.264739e+03
1.071265e+03,1.254822e+03
1.082836e+03,1.263174e+03
1.094406e+03,1.286198e+03
1.105977e+03,1.255281e+03
1.117548e+03,1.263564e+03
1.129119e+03,1.231682e+03
1.140690e+03,1.218029e+03
1.152261e+03,1.211446e+03
1.163831e+03,1.200388e+03
1.175402e+03,1.195382e+03
1.186973e+03,1.193373e+03
1.198544e+03,1.180248e+03
1.210115e+03,1.171145e+03
1.221685e+03,1.168461e+03
1.233256e+03,1.159418e+03
1.244827e+03,1.162945e+03
1.256398e+03,1.152628e+03
1.267969e+03,1.144783e+03
1.279539e+03,1.146874e+03
1.291110e+03,1.141587e+03
1.302681e+03,1.136867e+03
1.314252e+03,1.130328e+03
1.325823e+03,1.133099e+03
1.337393e+03,1.129310e+03
1.348964e+03,1.119067e+03
1.360535e+03,1.109576e+03
1.372106e+03,1.110414e+03
1.383677e+03,1.107531e+03
1.395247e+03,1.083151e+03
1.406818e+03,1.088584e+03
1.418389e+03,1.086420e+03
1.429960e+03,1.076062e+03
1.441531e+03,1.066711e+03
1.453101e+03,1.066835e+03
1.464672e+03,1.061159e+03
1.476243e+03,1.052784e+03
1.487814e+03,1.034239e+03
1.499385e+03,1.035787e+03
1.510955e+03,1.032255e+03
1.522526e+03,1.018903e+03
1.534097e+03,1.011958e+03
1.545668e+03,1.014852e+03
1.557239e+03,1.008067e+03
1.568809e+03,1.011588e+03
1.580380e+03,1.005617e+03
1.591951e+03,9.945328e+02
1.603522e+03,9.975651e+02
1.615093e+03,9.787565e+02
1.626663e+03,9.666174e+02
1.638234e+03,9.524783e+02
1.649805e+03,9.498507e+02
1.661376e+03,9.531656e+02
1.672947e+03,9.326023e+02
1.684517e+03,9.273168e+02
1.696088e+03,9.263531e+02
1.707659e+03,9.218915e+02
1.719230e+03,9.111418e+02
1.730801e+03,9.044502e+02
1.742371e+03,9.013269e+02
1.753942e+03,8.944029e+02
1.765513e+03,8.831999e+02
1.777084e+03,8.726430e+02
1.788655e+03,8.597782e+02
1.800225e+03,8.578755e+02
1.811796e+03,8.589739e+02
1.823367e+03,8.321160e+02
1.834938e+03,8.341296e+02
1.846509e+03,8.292185e+02
1.858079e+03,8.208496e+02
1.869650e+03,8.139280e+02
1.881221e+03,8.052138e+02
1.892792e+03,7.983660e+02
1.904363e+03,7.871795e+02
1.915933e+03,7.835548e+02
1.927504e+03,7.786682e+02
1.939075e+03,7.705361e+02
1.950646e+03,7.522629e+02
1.962217e+03,7.444454e+02
1.973787e+03,7.525145e+02
1.985358e+03,7.379571e+02
1.996929e+03,7.365042e+02
2.008500e+03,7.210959e+02
2.020071e+03,7.151635e+02
2.031641e+03,7.058012e+02
2.043212e+03,7.017566e+02
2.054783e+03,6.845673e+02
2.066354e+03,6.723777e+02
2.077925e+03,6.826951e+02
2.089496e+03,6.563893e+02
2.101066e+03,6.523314e+02
2.112637e+03,6.476207e+02
2.124208e+03,6.397839e+02
2.135779e+03,6.334128e+02
2.147350e+03,6.216847e+02
2.158920e+03,6.151851e+02
2.170491e+03,6.095965e+02
2.182062e+03,6.150187e+02
2.193633e+03,6.029844e+02
2.205204e+03,6.061531e+02
2.216774e+03,5.793241e+02
2.228345e+03,5.706992e+02
2.239916e+03,5.783815e+02
2.251487e+03,5.671522e+02
2.263058e+03,5.631384e+02
2.274628e+03,5.459367e+02
2.286199e+03,5.306496e+02
2.297770e+03,5.440923e+02
2.309341e+03,5.333155e+02
2.320912e+03,5.178167e+02
2.332482e+03,5.227555e+02
2.344053e+03,5.248388e+02
2.355624e+03,4.992902e+02
2.367195e+03,4.979731e+02
2.378766e+03,4.981898e+02
2.390336e+03,4.927700e+02
2.401907e+03,4.945672e+02
2.413478e+03,4.824111e+02
2.425049e+03,4.750299e+02
2.436620e+03,4.700560e+02
2.448190e+03,4.613349e+02
2.459761e+03,4.658725e+02
2.471332e+03,4.535735e+02
2.482903e+03,4.582855e+02
2.494474e+03,4.491619e+02
2.506044e+03,4.365685e+02
2.517615e+03,4.389908e+02
2.529186e+03,4.342058e+02
2.540757e+03,4.379428e+02
2.552328e+03,4.286182e+02
2.563898e+03,4.249067e+02
2.575469e+03,4.345511e+02
2.587040e+03,4.162688e+02
2.598611e+03,4.068511e+02
2.610182e+03,3.992278e+02
2.621752e+03,4.046770e+02
2.633323e+03,4.102430e+02
2.644894e+03,3.949995e+02
2.656465e+03,3.982608e+02
2.668036e+03,3.878826e+02
2.679606e+03,3.883774e+02
2.691177e+03,3.871447e+02
2.702748e+03,3.739058e+02
2.714319e+03,3.869767e+02
2.725890e+03,3.722498e+02
2.737460e+03,3.671287e+02
2.749031e+03,3.669289e+02
2.760602e+03,3.676251e+02
2.772173e+03,3.633004e+02
2.783744e+03,3.639357e+02
2.795314e+03,3.396719e+02
2.806885e+03,3.642487e+02
2.818456e+03,3.393959e+02
2.830027e+03,3.608415e+02
2.841598e+03,3.599132e+02
2.853168e+03,3.592704e+02
2.864739e+03,3.730939e+02
2.876310e+03,3.630391e+02
2.887881e+03,3.944588e+02
2.899452e+03,3.973013e+02
2.911022e+03,3.747736e+02
2.922593e+03,3.550935e+02
2.934164e+03,3.560916e+02
2.945735e+03,3.389489e+02
2.957306e+03,3.700240e+02
2.968876e+03,3.444065e+02
2.980447e+03,3.295150e+02
2.992018e+03,3.278678e+02
3.003589e+03,3.014066e+02
3.015160e+03,3.206145e+02
3.026730e+03,3.119034e+02
3.038301e+03,3.256314e+02
3.049872e+03,3.078841e+02
3.061443e+03,3.026673e+02
3.073014e+03,2.820168e+02
3.084584e+03,2.815952e+02
3.096155e+03,3.365629e+02
3.107726e+03,2.794958e+02
3.119297e+03,3.149557e+02
3.130868e+03,3.334420e+02
3.142438e+03,3.295062e+02
3.154009e+03,3.180763e+02
3.165580e+03,3.334127e+02
3.177151e+03,3.080642e+02
3.188722e+03,3.186545e+02
3.200292e+03,3.645653e+02
3.211863e+03,0.000000e+00
3.223434e+03,0.000000e+00
3.235005e+03,0.000000e+00
3.246576e+03,0.000000e+00
3.258146e+03,0.000000e+00
3.269717e+03,0.000000e+00
3.281288e+03,0.000000e+00
3.292859e+03,0.000000e+00
3.304430e+03,0.000000e+00
3.316000e+03,0.000000e+00
3.327571e+03,0.000000e+00
3.339142e+03,0.000000e+00
3.350713e+03,0.000000e+00
3.362284e+03,0.000000e+00
3.373854e+03,0.000000e+00
3.385425e+03,0.000000e+00
3.396996e+03,0.000000e+00
3.408567e+03,0.000000e+00
3.420138e+03,0.000000e+00
3.431708e+03,0.000000e+00
3.443279e+03,0.000000e+00
3.454850e+03,0.000000e+00
3.466421e+03,0.000000e+00
3.477992e+03,0.000000e+00
3.489563e+03,0.000000e+00
3.500169e+03,0.000000e+00