File: RAMAN_data/14032024_r1/black fibre1.CSV
9.931763e+01,0.000000e+00
1.108884e+02,0.000000e+00
1.224592e+02,0.000000e+00
1.340300e+02,0.000000e+00
1.456008e+02,0.000000e+00
1.571716e+02,0.000000e+00
1.687424e+02,0.000000e+00
1.803132e+02,0.000000e+00
1.918840e+02,0.000000e+00
2.034548e+02,7.236904e+03
2.150256e+02,7.295139e+03
2.265964e+02,7.290187e+03
2.381673e+02,7.381936e+03
2.497381e+02,7.391780e+03
2.613088e+02,7.436562e+03
2.728796e+02,7.467629e+03
2.844504e+02,7.508408e+03
2.960212e+02,7.554420e+03
3.075920e+02,7.573136e+03
3.191628e+02,7.609525e+03
3.307336e+02,7.637408e+03
3.423044e+02,7.679110e+03
3.538752e+02,7.678402e+03
3.654461e+02,7.684870e+03
3.770169e+02,7.743822e+03
3.885877e+02,7.725570e+03
4.001585e+02,7.736924e+03
4.117293e+02,7.752342e+03
4.233001e+02,7.769136e+03
4.348709e+02,7.778085e+03
4.464417e+02,7.816183e+03
4.580125e+02,7.782827e+03
4.695833e+02,7.772063e+03
4.811541e+02,7.759114e+03
4.927249e+02,7.839782e+03
5.042957e+02,7.773989e+03
5.158665e+02,7.817093e+03
5.274373e+02,7.824025e+03
5.390081e+02,7.782470e+03
5.505789e+02,7.787577e+03
5.621497e+02,7.830950e+03
5.737205e+02,7.757485e+03
5.852913e+02,7.760857e+03
5.968621e+02,7.735097e+03
6.084329e+02,7.749160e+03
6.200037e+02,7.719905e+03
6.315745e+02,7.708952e+03
6.431453e+02,7.692576e+03
6.547161e+02,7.679561e+03
6.662869e+02,7.664477e+03
6.778577e+02,7.674897e+03
6.894285e+02,7.631862e+03
7.009993e+02,7.591308e+03
7.125701e+02,7.583697e+03
7.241409e+02,7.575705e+03
7.357117e+02,7.530454e+03
7.472825e+02,7.571718e+03
7.588533e+02,7.520702e+03
7.704241e+02,7.468177e+03
7.819949e+02,7.470789e+03
7.935657e+02,7.453688e+03
8.051365e+02,7.391282e+03
8.167073e+02,7.413686e+03
8.282781e+02,7.336130e+03
8.398489e+02,7.347959e+03
8.514197e+02,7.313117e+03
8.629905e+02,7.261693e+03
8.745613e+02,7.267500e+03
8.861321e+02,7.259085e+03
8.977029e+02,7.215985e+03
9.092737e+02,7.163888e+03
9.208445e+02,7.128513e+03
9.324153e+02,7.105230e+03
9.439861e+02,7.081675e+03
9.555569e+02,7.035268e+03
9.671277e+02,7.018576e+03
9.786985e+02,6.990439e+03
9.902693e+02,6.938633e+03
1.001840e+03,6.909429e+03
1.013411e+03,6.894391e+03
1.024982e+03,6.858572e+03
1.036552e+03,6.848313e+03
1.048123e+03,6.779875e+03
1.059694e+03,6.779866e+03
1.071265e+03,6.744787e+03
1.082836e+03,6.730647e+03
1.094406e+03,6.681674e+03
1.105977e+03,6.684321e+03
1.117548e+03,6.645427e+03
1.129119e+03,6.599384e+03
1.140690e+03,6.544271e+03
1.152261e+03,6.556622e+03
1.163831e+03,6.491010e+03
1.175402e+03,6.449444e+03
1.186973e+03,6.402640e+03
1.198544e+03,6.404537e+03
1.210115e+03,6.367842e+03
1.221685e+03,6.330628e+03
1.233256e+03,6.281792e+03
1.244827e+03,6.248928e+03
1.256398e+03,6.220903e+03
1.267969e+03,6.183818e+03
1.279539e+03,6.190407e+03
1.291110e+03,6.148080e+03
1.302681e+03,6.117496e+03
1.314252e+03,6.047386e+03
1.325823e+03,6.043146e+03
1.337393e+03,6.023259e+03
1.348964e+03,5.984657e+03
1.360535e+03,5.923826e+03
1.372106e+03,5.917359e+03
1.383677e+03,5.899750e+03
1.395247e+03,5.842431e+03
1.406818e+03,5.797225e+03
1.418389e+03,5.772310e+03
1.429960e+03,5.778581e+03
1.441531e+03,5.704225e+03
1.453101e+03,5.675284e+03
1.464672e+03,5.675696e+03
1.476243e+03,5.642673e+03
1.487814e+03,5.597057e+03
1.499385e+03,5.547372e+03
1.510955e+03,5.525927e+03
1.522526e+03,5.508979e+03
1.534097e+03,5.434421e+03
1.545668e+03,5.409318e+03
1.557239e+03,5.415993e+03
1.568809e+03,5.387259e+03
1.580380e+03,5.352981e+03
1.591951e+03,5.300626e+03
1.603522e+03,5.301142e+03
1.615093e+03,5.250351e+03
1.626663e+03,5.179092e+03
1.638234e+03,5.185797e+03
1.649805e+03,5.143147e+03
1.661376e+03,5.087351e+03
1.672947e+03,5.054339e+03
1.684517e+03,5.015731e+03
1.696088e+03,4.971384e+03
1.707659e+03,4.948875e+03
1.719230e+03,4.897780e+03
1.730801e+03,4.866383e+03
1.742371e+03,4.857231e+03
1.753942e+03,4.787820e+03
1.765513e+03,4.765669e+03
1.777084e+03,4.734992e+03
1.788655e+03,4.711375e+03
1.800225e+03,4.684636e+03
1.811796e+03,4.684839e+03
1.823367e+03,4.589412e+03
1.834938e+03,4.580286e+03
1.846509e+03,4.535875e+03
1.858079e+03,4.534052e+03
1.869650e+03,4.466946e+03
1.881221e+03,4.449563e+03
1.892792e+03,4.413925e+03
1.904363e+03,4.366918e+03
1.915933e+03,4.330718e+03
1.927504e+03,4.320657e+03
1.939075e+03,4.287842e+03
1.950646e+03,4.222423e+03
1.962217e+03,4.194417e+03
1.973787e+03,4.147245e+03
1.985358e+03,4.131299e+03
1.996929e+03,4.097645e+03
2.008500e+03,4.052565e+03
2.020071e+03,4.000817e+03
2.031641e+03,3.990817e+03
2.043212e+03,3.935668e+03
2.054783e+03,3.914984e+03
2.066354e+03,3.865879e+03
2.077925e+03,3.837270e+03
2.089496e+03,3.786730e+03
2.101066e+03,3.724434e+03
2.112637e+03,3.733872e+03
2.124208e+03,3.702881e+03
2.135779e+03,3.631395e+03
2.147350e+03,3.606083e+03
2.158920e+03,3.574836e+03
2.170491e+03,3.566246e+03
2.182062e+03,3.505202e+03
2.193633e+03,3.477366e+03
2.205204e+03,3.441105e+03
2.216774e+03,3.418343e+03
2.228345e+03,3.338677e+03
2.239916e+03,3.316434e+03
2.251487e+03,3.279147e+03
2.263058e+03,3.252057e+03
2.274628e+03,3.214223e+03
2.286199e+03,3.145835e+03
2.297770e+03,3.130778e+03
2.309341e+03,3.091926e+03
2.320912e+03,3.040396e+03
2.332482e+03,3.018450e+03
2.344053e+03,3.012479e+03
2.355624e+03,2.966752e+03
2.367195e+03,2.901205e+03
2.378766e+03,2.889931e+03
2.390336e+03,2.861013e+03
2.401907e+03,2.838545e+03
2.413478e+03,2.779388e+03
2.425049e+03,2.810183e+03
2.436620e+03,2.726761e+03
2.448190e+03,2.706166e+03
2.459761e+03,2.679966e+03
2.471332e+03,2.627930e+03
2.482903e+03,2.639098e+03
2.494474e+03,2.574886e+03
2.506044e+03,2.546564e+03
2.517615e+03,2.544987e+03
2.529186e+03,2.523387e+03
2.540757e+03,2.491728e+03
2.552328e+03,2.460899e+03
2.563898e+03,2.464827e+03
2.575469e+03,2.426793e+03
2.587040e+03,2.392516e+03
2.598611e+03,2.364389e+03
2.610182e+03,2.358746e+03
2.621752e+03,2.302993e+03
2.633323e+03,2.272725e+03
2.644894e+03,2.266581e+03
2.656465e+03,2.257270e+03
2.668036e+03,2.214872e+03
2.679606e+03,2.195860e+03
2.691177e+03,2.173290e+03
2.702748e+03,2.155009e+03
2.714319e+03,2.155477e+03
2.725890e+03,2.136513e+03
2.737460e+03,2.092573e+03
2.749031e+03,2.096763e+03
2.760602e+03,2.055759e+03
2.772173e+03,2.053521e+03
2.783744e+03,2.003408e+03
2.795314e+03,2.007157e+03
2.806885e+03,2.013808e+03
2.818456e+03,1.971240e+03
2.830027e+03,1.954570e+03
2.841598e+03,1.979048e+03
2.853168e+03,1.950112e+03
2.864739e+03,1.920943e+03
2.876310e+03,1.904478e+03
2.887881e+03,1.932775e+03
2.899452e+03,1.896555e+03
2.911022e+03,1.864604e+03
2.922593e+03,1.840579e+03
2.934164e+03,1.836299e+03
2.945735e+03,1.782020e+03
2.957306e+03,1.830514e+03
2.968876e+03,1.799325e+03
2.980447e+03,1.780557e+03
2.992018e+03,1.730763e+03
3.003589e+03,1.761270e+03
3.015160e+03,1.697165e+03
3.026730e+03,1.689375e+03
3.038301e+03,1.716307e+03
3.049872e+03,1.658783e+03
3.061443e+03,1.693350e+03
3.073014e+03,1.671518e+03
3.084584e+03,1.648121e+03
3.096155e+03,1.649299e+03
3.107726e+03,1.605836e+03
3.119297e+03,1.695824e+03
3.130868e+03,1.600844e+03
3.142438e+03,1.623305e+03
3.154009e+03,1.629583e+03
3.165580e+03,1.629559e+03
3.177151e+03,1.599367e+03
3.188722e+03,1.592482e+03
3.200292e+03,1.686018e+03
3.211863e+03,0.000000e+00
3.223434e+03,0.000000e+00
3.235005e+03,0.000000e+00
3.246576e+03,0.000000e+00
3.258146e+03,0.000000e+00
3.269717e+03,0.000000e+00
3.281288e+03,0.000000e+00
3.292859e+03,0.000000e+00
3.304430e+03,0.000000e+00
3.316000e+03,0.000000e+00
3.327571e+03,0.000000e+00
3.339142e+03,0.000000e+00
3.350713e+03,0.000000e+00
3.362284e+03,0.000000e+00
3.373854e+03,0.000000e+00
3.385425e+03,0.000000e+00
3.396996e+03,0.000000e+00
3.408567e+03,0.000000e+00
3.420138e+03,0.000000e+00
3.431708e+03,0.000000e+00
3.443279e+03,0.000000e+00
3.454850e+03,0.000000e+00
3.466421e+03,0.000000e+00
3.477992e+03,0.000000e+00
3.489563e+03,0.000000e+00
3.500169e+03,0.000000e+00