File: RAMAN_data/14032024_r1/black fibre6.CSV
9.931763e+01,0.000000e+00
1.108884e+02,0.000000e+00
1.224592e+02,0.000000e+00
1.340300e+02,0.000000e+00
1.456008e+02,0.000000e+00
1.571716e+02,0.000000e+00
1.687424e+02,0.000000e+00
1.803132e+02,0.000000e+00
1.918840e+02,0.000000e+00
2.034548e+02,4.007777e+03
2.150256e+02,4.012662e+03
2.265964e+02,4.035657e+03
2.381673e+02,4.058954e+03
2.497381e+02,4.074779e+03
2.613088e+02,4.078327e+03
2.728796e+02,4.097463e+03
2.844504e+02,4.134352e+03
2.960212e+02,4.142275e+03
3.075920e+02,4.131641e+03
3.191628e+02,4.121558e+03
3.307336e+02,4.145867e+03
3.423044e+02,4.148503e+03
3.538752e+02,4.160151e+03
3.654461e+02,4.162610e+03
3.770169e+02,4.202145e+03
3.885877e+02,4.167689e+03
4.001585e+02,4.180923e+03
4.117293e+02,4.198350e+03
4.233001e+02,4.188143e+03
4.348709e+02,4.194569e+03
4.464417e+02,4.163370e+03
4.580125e+02,4.167409e+03
4.695833e+02,4.105878e+03
4.811541e+02,4.107974e+03
4.927249e+02,4.094285e+03
5.042957e+02,4.095212e+03
5.158665e+02,4.086792e+03
5.274373e+02,4.101595e+03
5.390081e+02,4.088635e+03
5.505789e+02,4.051892e+03
5.621497e+02,4.042961e+03
5.737205e+02,4.032961e+03
5.852913e+02,4.033753e+03
5.968621e+02,4.014390e+03
6.084329e+02,4.010667e+03
6.200037e+02,3.986596e+03
6.315745e+02,3.970838e+03
6.431453e+02,3.912801e+03
6.547161e+02,3.900932e+03
6.662869e+02,3.844443e+03
6.778577e+02,3.825858e+03
6.894285e+02,3.796039e+03
7.009993e+02,3.810138e+03
7.125701e+02,3.808797e+03
7.241409e+02,3.777702e+03
7.357117e+02,3.789799e+03
7.472825e+02,3.723582e+03
7.588533e+02,3.681678e+03
7.704241e+02,3.666638e+03
7.819949e+02,3.648736e+03
7.935657e+02,3.651526e+03
8.051365e+02,3.622214e+03
8.167073e+02,3.601224e+03
8.282781e+02,3.549050e+03
8.398489e+02,3.491923e+03
8.514197e+02,3.466679e+03
8.629905e+02,3.447741e+03
8.745613e+02,3.417243e+03
8.861321e+02,3.419568e+03
8.977029e+02,3.380391e+03
9.092737e+02,3.348630e+03
9.208445e+02,3.290164e+03
9.324153e+02,3.302019e+03
9.439861e+02,3.279660e+03
9.555569e+02,3.270468e+03
9.671277e+02,3.250363e+03
9.786985e+02,3.232521e+03
9.902693e+02,3.201450e+03
1.001840e+03,3.164074e+03
1.013411e+03,3.098779e+03
1.024982e+03,3.075831e+03
1.036552e+03,3.047464e+03
1.048123e+03,3.037281e+03
1.059694e+03,3.059214e+03
1.071265e+03,3.097409e+03
1.082836e+03,3.032102e+03
1.094406e+03,3.023543e+03
1.105977e+03,2.990197e+03
1.117548e+03,2.982397e+03
1.129119e+03,2.973053e+03
1.140690e+03,3.005910e+03
1.152261e+03,3.047505e+03
1.163831e+03,3.046208e+03
1.175402e+03,2.949028e+03
1.186973e+03,2.858971e+03
1.198544e+03,2.858377e+03
1.210115e+03,2.824131e+03
1.221685e+03,2.776790e+03
1.233256e+03,2.758241e+03
1.244827e+03,2.723708e+03
1.256398e+03,2.712803e+03
1.267969e+03,2.696222e+03
1.279539e+03,2.695599e+03
1.291110e+03,2.716553e+03
1.302681e+03,2.733448e+03
1.314252e+03,2.798156e+03
1.325823e+03,2.801500e+03
1.337393e+03,2.790696e+03
1.348964e+03,2.686135e+03
1.360535e+03,2.639753e+03
1.372106e+03,2.615232e+03
1.383677e+03,2.596469e+03
1.395247e+03,2.568174e+03
1.406818e+03,2.521958e+03
1.418389e+03,2.501261e+03
1.429960e+03,2.481718e+03
1.441531e+03,2.459929e+03
1.453101e+03,2.442153e+03
1.464672e+03,2.419004e+03
1.476243e+03,2.407460e+03
1.487814e+03,2.412656e+03
1.499385e+03,2.403469e+03
1.510955e+03,2.390852e+03
1.522526e+03,2.397345e+03
1.534097e+03,2.353527e+03
1.545668e+03,2.330970e+03
1.557239e+03,2.313757e+03
1.568809e+03,2.322605e+03
1.580380e+03,2.357404e+03
1.591951e+03,2.288284e+03
1.603522e+03,2.306624e+03
1.615093e+03,2.269270e+03
1.626663e+03,2.207053e+03
1.638234e+03,2.169705e+03
1.649805e+03,2.159886e+03
1.661376e+03,2.180860e+03
1.672947e+03,2.140888e+03
1.684517e+03,2.140978e+03
1.696088e+03,2.126534e+03
1.707659e+03,2.119476e+03
1.719230e+03,2.080064e+03
1.730801e+03,2.040569e+03
1.742371e+03,2.034657e+03
1.753942e+03,2.011199e+03
1.765513e+03,2.005010e+03
1.777084e+03,1.973455e+03
1.788655e+03,1.967995e+03
1.800225e+03,1.938797e+03
1.811796e+03,1.930026e+03
1.823367e+03,1.898943e+03
1.834938e+03,1.889100e+03
1.846509e+03,1.894993e+03
1.858079e+03,1.870401e+03
1.869650e+03,1.853371e+03
1.881221e+03,1.836007e+03
1.892792e+03,1.804983e+03
1.904363e+03,1.777512e+03
1.915933e+03,1.753843e+03
1.927504e+03,1.727140e+03
1.939075e+03,1.715837e+03
1.950646e+03,1.707055e+03
1.962217e+03,1.687930e+03
1.973787e+03,1.671391e+03
1.985358e+03,1.648337e+03
1.996929e+03,1.632899e+03
2.008500e+03,1.637265e+03
2.020071e+03,1.618655e+03
2.031641e+03,1.610068e+03
2.043212e+03,1.571185e+03
2.054783e+03,1.562562e+03
2.066354e+03,1.546758e+03
2.077925e+03,1.522405e+03
2.089496e+03,1.496783e+03
2.101066e+03,1.458658e+03
2.112637e+03,1.433824e+03
2.124208e+03,1.443927e+03
2.135779e+03,1.420081e+03
2.147350e+03,1.377628e+03
2.158920e+03,1.364892e+03
2.170491e+03,1.378473e+03
2.182062e+03,1.358690e+03
2.193633e+03,1.346445e+03
2.205204e+03,1.319849e+03
2.216774e+03,1.305168e+03
2.228345e+03,1.274902e+03
2.239916e+03,1.280462e+03
2.251487e+03,1.257939e+03
2.263058e+03,1.213691e+03
2.274628e+03,1.189165e+03
2.286199e+03,1.167506e+03
2.297770e+03,1.177232e+03
2.309341e+03,1.157883e+03
2.320912e+03,1.140657e+03
2.332482e+03,1.131742e+03
2.344053e+03,1.126647e+03
2.355624e+03,1.109093e+03
2.367195e+03,1.107191e+03
2.378766e+03,1.097771e+03
2.390336e+03,1.079226e+03
2.401907e+03,1.068692e+03
2.413478e+03,1.053520e+03
2.425049e+03,1.034272e+03
2.436620e+03,1.016883e+03
2.448190e+03,9.983934e+02
2.459761e+03,9.866149e+02
2.471332e+03,9.744517e+02
2.482903e+03,9.706741e+02
2.494474e+03,9.605295e+02
2.506044e+03,9.439078e+02
2.517615e+03,9.309581e+02
2.529186e+03,9.447679e+02
2.540757e+03,9.122391e+02
2.552328e+03,9.225908e+02
2.563898e+03,9.172513e+02
2.575469e+03,9.052620e+02
2.587040e+03,8.841249e+02
2.598611e+03,8.836345e+02
2.610182e+03,8.631485e+02
2.621752e+03,8.472177e+02
2.633323e+03,8.385037e+02
2.644894e+03,8.339679e+02
2.656465e+03,8.352789e+02
2.668036e+03,8.231166e+02
2.679606e+03,8.213801e+02
2.691177e+03,8.066465e+02
2.702748e+03,7.833235e+02
2.714319e+03,8.106533e+02
2.725890e+03,7.804647e+02
2.737460e+03,7.918818e+02
2.749031e+03,7.527125e+02
2.760602e+03,7.701900e+02
2.772173e+03,7.685662e+02
2.783744e+03,7.547562e+02
2.795314e+03,7.475645e+02
2.806885e+03,7.418325e+02
2.818456e+03,7.191467e+02
2.830027e+03,7.268984e+02
2.841598e+03,7.383895e+02
2.853168e+03,7.340734e+02
2.864739e+03,7.259859e+02
2.876310e+03,7.413585e+02
2.887881e+03,7.467135e+02
2.899452e+03,7.464455e+02
2.911022e+03,7.399650e+02
2.922593e+03,7.144008e+02
2.934164e+03,6.872452e+02
2.945735e+03,7.065418e+02
2.957306e+03,7.548944e+02
2.968876e+03,6.987887e+02
2.980447e+03,6.578458e+02
2.992018e+03,6.574947e+02
3.003589e+03,6.647783e+02
3.015160e+03,6.215013e+02
3.026730e+03,6.327956e+02
3.038301e+03,6.338267e+02
3.049872e+03,6.384399e+02
3.061443e+03,6.296722e+02
3.073014e+03,6.521789e+02
3.084584e+03,6.393590e+02
3.096155e+03,6.426074e+02
3.107726e+03,6.330429e+02
3.119297e+03,6.345344e+02
3.130868e+03,6.381251e+02
3.142438e+03,6.293626e+02
3.154009e+03,6.582346e+02
3.165580e+03,6.534667e+02
3.177151e+03,6.202116e+02
3.188722e+03,5.982467e+02
3.200292e+03,6.937839e+02
3.211863e+03,0.000000e+00
3.223434e+03,0.000000e+00
3.235005e+03,0.000000e+00
3.246576e+03,0.000000e+00
3.258146e+03,0.000000e+00
3.269717e+03,0.000000e+00
3.281288e+03,0.000000e+00
3.292859e+03,0.000000e+00
3.304430e+03,0.000000e+00
3.316000e+03,0.000000e+00
3.327571e+03,0.000000e+00
3.339142e+03,0.000000e+00
3.350713e+03,0.000000e+00
3.362284e+03,0.000000e+00
3.373854e+03,0.000000e+00
3.385425e+03,0.000000e+00
3.396996e+03,0.000000e+00
3.408567e+03,0.000000e+00
3.420138e+03,0.000000e+00
3.431708e+03,0.000000e+00
3.443279e+03,0.000000e+00
3.454850e+03,0.000000e+00
3.466421e+03,0.000000e+00
3.477992e+03,0.000000e+00
3.489563e+03,0.000000e+00
3.500169e+03,0.000000e+00