File: RAMAN_data/14032024_r1/black fibre7.CSV
9.931763e+01,0.000000e+00
1.108884e+02,0.000000e+00
1.224592e+02,0.000000e+00
1.340300e+02,0.000000e+00
1.456008e+02,0.000000e+00
1.571716e+02,0.000000e+00
1.687424e+02,0.000000e+00
1.803132e+02,0.000000e+00
1.918840e+02,0.000000e+00
2.034548e+02,6.849001e+03
2.150256e+02,6.896970e+03
2.265964e+02,6.908821e+03
2.381673e+02,6.989116e+03
2.497381e+02,7.054221e+03
2.613088e+02,7.109708e+03
2.728796e+02,7.124500e+03
2.844504e+02,7.189831e+03
2.960212e+02,7.200079e+03
3.075920e+02,7.217191e+03
3.191628e+02,7.247321e+03
3.307336e+02,7.313898e+03
3.423044e+02,7.339664e+03
3.538752e+02,7.362533e+03
3.654461e+02,7.373772e+03
3.770169e+02,7.449225e+03
3.885877e+02,7.440705e+03
4.001585e+02,7.468381e+03
4.117293e+02,7.521313e+03
4.233001e+02,7.509052e+03
4.348709e+02,7.544553e+03
4.464417e+02,7.564501e+03
4.580125e+02,7.564661e+03
4.695833e+02,7.588646e+03
4.811541e+02,7.727392e+03
4.927249e+02,7.766180e+03
5.042957e+02,7.647767e+03
5.158665e+02,7.667282e+03
5.274373e+02,7.650305e+03
5.390081e+02,7.627335e+03
5.505789e+02,7.625115e+03
5.621497e+02,7.677274e+03
5.737205e+02,7.640509e+03
5.852913e+02,7.661283e+03
5.968621e+02,7.688241e+03
6.084329e+02,7.660809e+03
6.200037e+02,7.665635e+03
6.315745e+02,7.635597e+03
6.431453e+02,7.644872e+03
6.547161e+02,7.647471e+03
6.662869e+02,7.612694e+03
6.778577e+02,7.595856e+03
6.894285e+02,7.571997e+03
7.009993e+02,7.560356e+03
7.125701e+02,7.552370e+03
7.241409e+02,7.559109e+03
7.357117e+02,7.519492e+03
7.472825e+02,7.501556e+03
7.588533e+02,7.468297e+03
7.704241e+02,7.455515e+03
7.819949e+02,7.452924e+03
7.935657e+02,7.445803e+03
8.051365e+02,7.402227e+03
8.167073e+02,7.403992e+03
8.282781e+02,7.354354e+03
8.398489e+02,7.352795e+03
8.514197e+02,7.335208e+03
8.629905e+02,7.266219e+03
8.745613e+02,7.270876e+03
8.861321e+02,7.282033e+03
8.977029e+02,7.218140e+03
9.092737e+02,7.223596e+03
9.208445e+02,7.168571e+03
9.324153e+02,7.161954e+03
9.439861e+02,7.112982e+03
9.555569e+02,7.060995e+03
9.671277e+02,7.052010e+03
9.786985e+02,7.006802e+03
9.902693e+02,6.978260e+03
1.001840e+03,6.945993e+03
1.013411e+03,6.949638e+03
1.024982e+03,6.892101e+03
1.036552e+03,6.881296e+03
1.048123e+03,6.815296e+03
1.059694e+03,6.796854e+03
1.071265e+03,6.795181e+03
1.082836e+03,6.781550e+03
1.094406e+03,6.746254e+03
1.105977e+03,6.720192e+03
1.117548e+03,6.785555e+03
1.129119e+03,6.860502e+03
1.140690e+03,6.801244e+03
1.152261e+03,6.832216e+03
1.163831e+03,6.641727e+03
1.175402e+03,6.641327e+03
1.186973e+03,6.617519e+03
1.198544e+03,6.591765e+03
1.210115e+03,6.537233e+03
1.221685e+03,6.499357e+03
1.233256e+03,6.412242e+03
1.244827e+03,6.415468e+03
1.256398e+03,6.363935e+03
1.267969e+03,6.382991e+03
1.279539e+03,6.505650e+03
1.291110e+03,6.339022e+03
1.302681e+03,6.257371e+03
1.314252e+03,6.195476e+03
1.325823e+03,6.186533e+03
1.337393e+03,6.243220e+03
1.348964e+03,6.196686e+03
1.360535e+03,6.119740e+03
1.372106e+03,6.056689e+03
1.383677e+03,6.018112e+03
1.395247e+03,5.936076e+03
1.406818e+03,5.936580e+03
1.418389e+03,5.884130e+03
1.429960e+03,5.834433e+03
1.441531e+03,5.763313e+03
1.453101e+03,5.695370e+03
1.464672e+03,5.661645e+03
1.476243e+03,5.628901e+03
1.487814e+03,5.642881e+03
1.499385e+03,5.601834e+03
1.510955e+03,5.542581e+03
1.522526e+03,5.503852e+03
1.534097e+03,5.466448e+03
1.545668e+03,5.445744e+03
1.557239e+03,5.473229e+03
1.568809e+03,5.473625e+03
1.580380e+03,5.500327e+03
1.591951e+03,5.460275e+03
1.603522e+03,5.302401e+03
1.615093e+03,5.296562e+03
1.626663e+03,5.204692e+03
1.638234e+03,5.165436e+03
1.649805e+03,5.121036e+03
1.661376e+03,5.068382e+03
1.672947e+03,5.027119e+03
1.684517e+03,5.019538e+03
1.696088e+03,4.998469e+03
1.707659e+03,4.981942e+03
1.719230e+03,4.939451e+03
1.730801e+03,4.882295e+03
1.742371e+03,4.871718e+03
1.753942e+03,4.824385e+03
1.765513e+03,4.768702e+03
1.777084e+03,4.736513e+03
1.788655e+03,4.714800e+03
1.800225e+03,4.669922e+03
1.811796e+03,4.608783e+03
1.823367e+03,4.612601e+03
1.834938e+03,4.585611e+03
1.846509e+03,4.545898e+03
1.858079e+03,4.503141e+03
1.869650e+03,4.451284e+03
1.881221e+03,4.412555e+03
1.892792e+03,4.386575e+03
1.904363e+03,4.351839e+03
1.915933e+03,4.311013e+03
1.927504e+03,4.275757e+03
1.939075e+03,4.257584e+03
1.950646e+03,4.202068e+03
1.962217e+03,4.157372e+03
1.973787e+03,4.134450e+03
1.985358e+03,4.099922e+03
1.996929e+03,4.065013e+03
2.008500e+03,3.996579e+03
2.020071e+03,3.997344e+03
2.031641e+03,3.963743e+03
2.043212e+03,3.901770e+03
2.054783e+03,3.853837e+03
2.066354e+03,3.838713e+03
2.077925e+03,3.777452e+03
2.089496e+03,3.772850e+03
2.101066e+03,3.712859e+03
2.112637e+03,3.683597e+03
2.124208e+03,3.658569e+03
2.135779e+03,3.641410e+03
2.147350e+03,3.535427e+03
2.158920e+03,3.532955e+03
2.170491e+03,3.489185e+03
2.182062e+03,3.451969e+03
2.193633e+03,3.460426e+03
2.205204e+03,3.375164e+03
2.216774e+03,3.328695e+03
2.228345e+03,3.313647e+03
2.239916e+03,3.284427e+03
2.251487e+03,3.257150e+03
2.263058e+03,3.225473e+03
2.274628e+03,3.181720e+03
2.286199e+03,3.123598e+03
2.297770e+03,3.123208e+03
2.309341e+03,3.069078e+03
2.320912e+03,3.034895e+03
2.332482e+03,2.997553e+03
2.344053e+03,2.992795e+03
2.355624e+03,2.946360e+03
2.367195e+03,2.898330e+03
2.378766e+03,2.891031e+03
2.390336e+03,2.869469e+03
2.401907e+03,2.812698e+03
2.413478e+03,2.759717e+03
2.425049e+03,2.775838e+03
2.436620e+03,2.720410e+03
2.448190e+03,2.692626e+03
2.459761e+03,2.663116e+03
2.471332e+03,2.651505e+03
2.482903e+03,2.618282e+03
2.494474e+03,2.601100e+03
2.506044e+03,2.552891e+03
2.517615e+03,2.521692e+03
2.529186e+03,2.490575e+03
2.540757e+03,2.454552e+03
2.552328e+03,2.479441e+03
2.563898e+03,2.434958e+03
2.575469e+03,2.420934e+03
2.587040e+03,2.389548e+03
2.598611e+03,2.351100e+03
2.610182e+03,2.328216e+03
2.621752e+03,2.330951e+03
2.633323e+03,2.292858e+03
2.644894e+03,2.287936e+03
2.656465e+03,2.253696e+03
2.668036e+03,2.250151e+03
2.679606e+03,2.220417e+03
2.691177e+03,2.182563e+03
2.702748e+03,2.179875e+03
2.714319e+03,2.162792e+03
2.725890e+03,2.154805e+03
2.737460e+03,2.095865e+03
2.749031e+03,2.108159e+03
2.760602e+03,2.079634e+03
2.772173e+03,2.026610e+03
2.783744e+03,2.034547e+03
2.795314e+03,2.012753e+03
2.806885e+03,1.992276e+03
2.818456e+03,1.995519e+03
2.830027e+03,1.950292e+03
2.841598e+03,1.948545e+03
2.853168e+03,1.931259e+03
2.864739e+03,1.906610e+03
2.876310e+03,1.889311e+03
2.887881e+03,1.907162e+03
2.899452e+03,1.922524e+03
2.911022e+03,1.874944e+03
2.922593e+03,1.817988e+03
2.934164e+03,1.791079e+03
2.945735e+03,1.831276e+03
2.957306e+03,1.816670e+03
2.968876e+03,1.829199e+03
2.980447e+03,1.786371e+03
2.992018e+03,1.747899e+03
3.003589e+03,1.705945e+03
3.015160e+03,1.733852e+03
3.026730e+03,1.730976e+03
3.038301e+03,1.721203e+03
3.049872e+03,1.682081e+03
3.061443e+03,1.671254e+03
3.073014e+03,1.689288e+03
3.084584e+03,1.675619e+03
3.096155e+03,1.680006e+03
3.107726e+03,1.679570e+03
3.119297e+03,1.652992e+03
3.130868e+03,1.612495e+03
3.142438e+03,1.634490e+03
3.154009e+03,1.665053e+03
3.165580e+03,1.656987e+03
3.177151e+03,1.627937e+03
3.188722e+03,1.582164e+03
3.200292e+03,1.657478e+03
3.211863e+03,0.000000e+00
3.223434e+03,0.000000e+00
3.235005e+03,0.000000e+00
3.246576e+03,0.000000e+00
3.258146e+03,0.000000e+00
3.269717e+03,0.000000e+00
3.281288e+03,0.000000e+00
3.292859e+03,0.000000e+00
3.304430e+03,0.000000e+00
3.316000e+03,0.000000e+00
3.327571e+03,0.000000e+00
3.339142e+03,0.000000e+00
3.350713e+03,0.000000e+00
3.362284e+03,0.000000e+00
3.373854e+03,0.000000e+00
3.385425e+03,0.000000e+00
3.396996e+03,0.000000e+00
3.408567e+03,0.000000e+00
3.420138e+03,0.000000e+00
3.431708e+03,0.000000e+00
3.443279e+03,0.000000e+00
3.454850e+03,0.000000e+00
3.466421e+03,0.000000e+00
3.477992e+03,0.000000e+00
3.489563e+03,0.000000e+00
3.500169e+03,0.000000e+00