File: RAMAN_data/14032024_r1/black fibre4.CSV
9.931763e+01,0.000000e+00
1.108884e+02,0.000000e+00
1.224592e+02,0.000000e+00
1.340300e+02,0.000000e+00
1.456008e+02,0.000000e+00
1.571716e+02,0.000000e+00
1.687424e+02,0.000000e+00
1.803132e+02,0.000000e+00
1.918840e+02,0.000000e+00
2.034548e+02,2.089483e+03
2.150256e+02,2.085446e+03
2.265964e+02,2.066313e+03
2.381673e+02,2.073510e+03
2.497381e+02,2.073063e+03
2.613088e+02,2.062437e+03
2.728796e+02,2.062800e+03
2.844504e+02,2.051047e+03
2.960212e+02,2.040181e+03
3.075920e+02,2.039185e+03
3.191628e+02,2.029993e+03
3.307336e+02,2.012934e+03
3.423044e+02,2.016423e+03
3.538752e+02,2.001988e+03
3.654461e+02,1.986201e+03
3.770169e+02,2.018720e+03
3.885877e+02,1.987660e+03
4.001585e+02,1.971623e+03
4.117293e+02,1.978362e+03
4.233001e+02,1.964784e+03
4.348709e+02,1.961189e+03
4.464417e+02,1.931686e+03
4.580125e+02,1.936264e+03
4.695833e+02,1.903327e+03
4.811541e+02,1.902997e+03
4.927249e+02,1.900793e+03
5.042957e+02,1.874323e+03
5.158665e+02,1.892414e+03
5.274373e+02,1.873951e+03
5.390081e+02,1.861149e+03
5.505789e+02,1.850252e+03
5.621497e+02,1.853180e+03
5.737205e+02,1.830565e+03
5.852913e+02,1.824256e+03
5.968621e+02,1.802822e+03
6.084329e+02,1.803103e+03
6.200037e+02,1.788838e+03
6.315745e+02,1.781621e+03
6.431453e+02,1.760654e+03
6.547161e+02,1.766193e+03
6.662869e+02,1.754994e+03
6.778577e+02,1.748329e+03
6.894285e+02,1.736852e+03
7.009993e+02,1.723226e+03
7.125701e+02,1.713369e+03
7.241409e+02,1.709315e+03
7.357117e+02,1.689160e+03
7.472825e+02,1.689537e+03
7.588533e+02,1.650765e+03
7.704241e+02,1.651762e+03
7.819949e+02,1.646120e+03
7.935657e+02,1.641203e+03
8.051365e+02,1.624201e+03
8.167073e+02,1.625520e+03
8.282781e+02,1.609892e+03
8.398489e+02,1.603454e+03
8.514197e+02,1.597793e+03
8.629905e+02,1.592932e+03
8.745613e+02,1.587922e+03
8.861321e+02,1.567313e+03
8.977029e+02,1.551349e+03
9.092737e+02,1.548016e+03
9.208445e+02,1.530514e+03
9.324153e+02,1.545932e+03
9.439861e+02,1.525809e+03
9.555569e+02,1.522593e+03
9.671277e+02,1.525230e+03
9.786985e+02,1.504288e+03
9.902693e+02,1.503732e+03
1.001840e+03,1.495502e+03
1.013411e+03,1.469934e+03
1.024982e+03,1.474642e+03
1.036552e+03,1.464364e+03
1.048123e+03,1.454868e+03
1.059694e+03,1.462676e+03
1.071265e+03,1.471327e+03
1.082836e+03,1.482063e+03
1.094406e+03,1.508128e+03
1.105977e+03,1.488211e+03
1.117548e+03,1.504725e+03
1.129119e+03,1.472242e+03
1.140690e+03,1.453429e+03
1.152261e+03,1.460664e+03
1.163831e+03,1.459054e+03
1.175402e+03,1.428867e+03
1.186973e+03,1.409358e+03
1.198544e+03,1.404046e+03
1.210115e+03,1.402007e+03
1.221685e+03,1.396777e+03
1.233256e+03,1.389410e+03
1.244827e+03,1.402455e+03
1.256398e+03,1.395783e+03
1.267969e+03,1.384741e+03
1.279539e+03,1.404735e+03
1.291110e+03,1.388436e+03
1.302681e+03,1.382972e+03
1.314252e+03,1.398735e+03
1.325823e+03,1.395145e+03
1.337393e+03,1.380277e+03
1.348964e+03,1.361722e+03
1.360535e+03,1.351324e+03
1.372106e+03,1.364216e+03
1.383677e+03,1.348964e+03
1.395247e+03,1.330321e+03
1.406818e+03,1.313881e+03
1.418389e+03,1.308593e+03
1.429960e+03,1.300833e+03
1.441531e+03,1.287144e+03
1.453101e+03,1.277400e+03
1.464672e+03,1.264990e+03
1.476243e+03,1.255881e+03
1.487814e+03,1.242102e+03
1.499385e+03,1.231557e+03
1.510955e+03,1.228548e+03
1.522526e+03,1.218846e+03
1.534097e+03,1.206157e+03
1.545668e+03,1.206261e+03
1.557239e+03,1.208699e+03
1.568809e+03,1.207633e+03
1.580380e+03,1.214193e+03
1.591951e+03,1.180929e+03
1.603522e+03,1.175269e+03
1.615093e+03,1.171548e+03
1.626663e+03,1.143400e+03
1.638234e+03,1.133514e+03
1.649805e+03,1.121248e+03
1.661376e+03,1.108541e+03
1.672947e+03,1.096334e+03
1.684517e+03,1.091385e+03
1.696088e+03,1.091065e+03
1.707659e+03,1.081447e+03
1.719230e+03,1.074558e+03
1.730801e+03,1.068097e+03
1.742371e+03,1.049473e+03
1.753942e+03,1.042060e+03
1.765513e+03,1.030756e+03
1.777084e+03,1.007632e+03
1.788655e+03,1.006355e+03
1.800225e+03,1.000154e+03
1.811796e+03,9.946364e+02
1.823367e+03,9.795765e+02
1.834938e+03,9.893329e+02
1.846509e+03,9.773397e+02
1.858079e+03,9.687920e+02
1.869650e+03,9.524222e+02
1.881221e+03,9.372357e+02
1.892792e+03,9.309328e+02
1.904363e+03,9.126057e+02
1.915933e+03,9.146381e+02
1.927504e+03,8.978161e+02
1.939075e+03,8.942955e+02
1.950646e+03,8.844063e+02
1.962217e+03,8.858447e+02
1.973787e+03,8.622166e+02
1.985358e+03,8.723301e+02
1.996929e+03,8.561484e+02
2.008500e+03,8.458601e+02
2.020071e+03,8.390010e+02
2.031641e+03,8.292171e+02
2.043212e+03,8.246240e+02
2.054783e+03,8.089794e+02
2.066354e+03,8.083691e+02
2.077925e+03,7.825562e+02
2.089496e+03,7.736599e+02
2.101066e+03,7.730158e+02
2.112637e+03,7.584155e+02
2.124208e+03,7.580256e+02
2.135779e+03,7.472099e+02
2.147350e+03,7.396843e+02
2.158920e+03,7.356488e+02
2.170491e+03,7.337219e+02
2.182062e+03,7.290142e+02
2.193633e+03,7.089854e+02
2.205204e+03,7.008079e+02
2.216774e+03,6.945689e+02
2.228345e+03,6.818237e+02
2.239916e+03,6.843124e+02
2.251487e+03,6.628594e+02
2.263058e+03,6.657346e+02
2.274628e+03,6.679559e+02
2.286199e+03,6.588202e+02
2.297770e+03,6.506910e+02
2.309341e+03,6.367048e+02
2.320912e+03,6.364085e+02
2.332482e+03,6.301949e+02
2.344053e+03,6.233817e+02
2.355624e+03,6.129676e+02
2.367195e+03,5.978885e+02
2.378766e+03,5.997610e+02
2.390336e+03,5.881185e+02
2.401907e+03,5.869907e+02
2.413478e+03,5.811245e+02
2.425049e+03,5.765065e+02
2.436620e+03,5.749594e+02
2.448190e+03,5.704361e+02
2.459761e+03,5.620120e+02
2.471332e+03,5.483589e+02
2.482903e+03,5.565203e+02
2.494474e+03,5.574369e+02
2.506044e+03,5.483250e+02
2.517615e+03,5.394301e+02
2.529186e+03,5.316569e+02
2.540757e+03,5.285819e+02
2.552328e+03,5.259045e+02
2.563898e+03,5.354577e+02
2.575469e+03,5.174285e+02
2.587040e+03,5.201572e+02
2.598611e+03,5.173026e+02
2.610182e+03,4.945453e+02
2.621752e+03,5.033536e+02
2.633323e+03,5.008621e+02
2.644894e+03,4.850775e+02
2.656465e+03,4.984688e+02
2.668036e+03,4.926058e+02
2.679606e+03,4.845765e+02
2.691177e+03,4.910247e+02
2.702748e+03,4.677477e+02
2.714319e+03,4.724155e+02
2.725890e+03,4.588214e+02
2.737460e+03,4.667800e+02
2.749031e+03,4.705852e+02
2.760602e+03,4.579746e+02
2.772173e+03,4.664843e+02
2.783744e+03,4.634029e+02
2.795314e+03,4.491968e+02
2.806885e+03,4.440055e+02
2.818456e+03,4.553769e+02
2.830027e+03,4.390128e+02
2.841598e+03,4.496597e+02
2.853168e+03,4.598253e+02
2.864739e+03,4.472816e+02
2.876310e+03,4.741492e+02
2.887881e+03,4.654860e+02
2.899452e+03,5.153268e+02
2.911022e+03,4.839900e+02
2.922593e+03,4.572026e+02
2.934164e+03,4.341797e+02
2.945735e+03,4.633268e+02
2.957306e+03,4.656662e+02
2.968876e+03,4.335220e+02
2.980447e+03,4.244303e+02
2.992018e+03,4.176527e+02
3.003589e+03,4.162550e+02
3.015160e+03,3.960573e+02
3.026730e+03,4.108757e+02
3.038301e+03,4.010450e+02
3.049872e+03,3.911862e+02
3.061443e+03,3.973407e+02
3.073014e+03,3.710612e+02
3.084584e+03,4.074217e+02
3.096155e+03,4.061300e+02
3.107726e+03,3.951546e+02
3.119297e+03,3.744859e+02
3.130868e+03,4.004883e+02
3.142438e+03,4.057765e+02
3.154009e+03,4.089201e+02
3.165580e+03,3.884350e+02
3.177151e+03,4.119336e+02
3.188722e+03,4.121522e+02
3.200292e+03,4.270090e+02
3.211863e+03,0.000000e+00
3.223434e+03,0.000000e+00
3.235005e+03,0.000000e+00
3.246576e+03,0.000000e+00
3.258146e+03,0.000000e+00
3.269717e+03,0.000000e+00
3.281288e+03,0.000000e+00
3.292859e+03,0.000000e+00
3.304430e+03,0.000000e+00
3.316000e+03,0.000000e+00
3.327571e+03,0.000000e+00
3.339142e+03,0.000000e+00
3.350713e+03,0.000000e+00
3.362284e+03,0.000000e+00
3.373854e+03,0.000000e+00
3.385425e+03,0.000000e+00
3.396996e+03,0.000000e+00
3.408567e+03,0.000000e+00
3.420138e+03,0.000000e+00
3.431708e+03,0.000000e+00
3.443279e+03,0.000000e+00
3.454850e+03,0.000000e+00
3.466421e+03,0.000000e+00
3.477992e+03,0.000000e+00
3.489563e+03,0.000000e+00
3.500169e+03,0.000000e+00