File: RAMAN_data/14032024_r1/black fibre5.CSV
9.931763e+01,0.000000e+00
1.108884e+02,0.000000e+00
1.224592e+02,0.000000e+00
1.340300e+02,0.000000e+00
1.456008e+02,0.000000e+00
1.571716e+02,0.000000e+00
1.687424e+02,0.000000e+00
1.803132e+02,0.000000e+00
1.918840e+02,0.000000e+00
2.034548e+02,2.304104e+03
2.150256e+02,2.290112e+03
2.265964e+02,2.254573e+03
2.381673e+02,2.237847e+03
2.497381e+02,2.201692e+03
2.613088e+02,2.188388e+03
2.728796e+02,2.197582e+03
2.844504e+02,2.185162e+03
2.960212e+02,2.190465e+03
3.075920e+02,2.191553e+03
3.191628e+02,2.172447e+03
3.307336e+02,2.182041e+03
3.423044e+02,2.168798e+03
3.538752e+02,2.167009e+03
3.654461e+02,2.155257e+03
3.770169e+02,2.156996e+03
3.885877e+02,2.096706e+03
4.001585e+02,2.062260e+03
4.117293e+02,2.054496e+03
4.233001e+02,2.059413e+03
4.348709e+02,2.058185e+03
4.464417e+02,2.039178e+03
4.580125e+02,2.027607e+03
4.695833e+02,2.023306e+03
4.811541e+02,2.007567e+03
4.927249e+02,2.019773e+03
5.042957e+02,2.019450e+03
5.158665e+02,2.011124e+03
5.274373e+02,1.964049e+03
5.390081e+02,1.918737e+03
5.505789e+02,1.923323e+03
5.621497e+02,1.917535e+03
5.737205e+02,1.908803e+03
5.852913e+02,1.893934e+03
5.968621e+02,1.892921e+03
6.084329e+02,1.891029e+03
6.200037e+02,1.877176e+03
6.315745e+02,1.880189e+03
6.431453e+02,1.866038e+03
6.547161e+02,1.860455e+03
6.662869e+02,1.830453e+03
6.778577e+02,1.801569e+03
6.894285e+02,1.785286e+03
7.009993e+02,1.784970e+03
7.125701e+02,1.760888e+03
7.241409e+02,1.782581e+03
7.357117e+02,1.784193e+03
7.472825e+02,1.772272e+03
7.588533e+02,1.764371e+03
7.704241e+02,1.746505e+03
7.819949e+02,1.755832e+03
7.935657e+02,1.743029e+03
8.051365e+02,1.715186e+03
8.167073e+02,1.688463e+03
8.282781e+02,1.683284e+03
8.398489e+02,1.672127e+03
8.514197e+02,1.672458e+03
8.629905e+02,1.669949e+03
8.745613e+02,1.650688e+03
8.861321e+02,1.663033e+03
8.977029e+02,1.646574e+03
9.092737e+02,1.643640e+03
9.208445e+02,1.634224e+03
9.324153e+02,1.641057e+03
9.439861e+02,1.615865e+03
9.555569e+02,1.594927e+03
9.671277e+02,1.581047e+03
9.786985e+02,1.580160e+03
9.902693e+02,1.560803e+03
1.001840e+03,1.555224e+03
1.013411e+03,1.545321e+03
1.024982e+03,1.542629e+03
1.036552e+03,1.563460e+03
1.048123e+03,1.564549e+03
1.059694e+03,1.573132e+03
1.071265e+03,1.610287e+03
1.082836e+03,1.595209e+03
1.094406e+03,1.617229e+03
1.105977e+03,1.587552e+03
1.117548e+03,1.574377e+03
1.129119e+03,1.541096e+03
1.140690e+03,1.563926e+03
1.152261e+03,1.570447e+03
1.163831e+03,1.593857e+03
1.175402e+03,1.555895e+03
1.186973e+03,1.527723e+03
1.198544e+03,1.550312e+03
1.210115e+03,1.561463e+03
1.221685e+03,1.527739e+03
1.233256e+03,1.506359e+03
1.244827e+03,1.495507e+03
1.256398e+03,1.479954e+03
1.267969e+03,1.464616e+03
1.279539e+03,1.484633e+03
1.291110e+03,1.500873e+03
1.302681e+03,1.495032e+03
1.314252e+03,1.508462e+03
1.325823e+03,1.534283e+03
1.337393e+03,1.538076e+03
1.348964e+03,1.493191e+03
1.360535e+03,1.483018e+03
1.372106e+03,1.470546e+03
1.383677e+03,1.444910e+03
1.395247e+03,1.413736e+03
1.406818e+03,1.382542e+03
1.418389e+03,1.390174e+03
1.429960e+03,1.357943e+03
1.441531e+03,1.354309e+03
1.453101e+03,1.345100e+03
1.464672e+03,1.327297e+03
1.476243e+03,1.327170e+03
1.487814e+03,1.320266e+03
1.499385e+03,1.309083e+03
1.510955e+03,1.295943e+03
1.522526e+03,1.283758e+03
1.534097e+03,1.256049e+03
1.545668e+03,1.240625e+03
1.557239e+03,1.247357e+03
1.568809e+03,1.224024e+03
1.580380e+03,1.232578e+03
1.591951e+03,1.207556e+03
1.603522e+03,1.191682e+03
1.615093e+03,1.213844e+03
1.626663e+03,1.160812e+03
1.638234e+03,1.157679e+03
1.649805e+03,1.136153e+03
1.661376e+03,1.134689e+03
1.672947e+03,1.106595e+03
1.684517e+03,1.097589e+03
1.696088e+03,1.075592e+03
1.707659e+03,1.079264e+03
1.719230e+03,1.054441e+03
1.730801e+03,1.045658e+03
1.742371e+03,1.027444e+03
1.753942e+03,1.012797e+03
1.765513e+03,1.003239e+03
1.777084e+03,1.004957e+03
1.788655e+03,9.994258e+02
1.800225e+03,9.750355e+02
1.811796e+03,9.698834e+02
1.823367e+03,9.485406e+02
1.834938e+03,9.371270e+02
1.846509e+03,9.253190e+02
1.858079e+03,9.222095e+02
1.869650e+03,9.053036e+02
1.881221e+03,8.829131e+02
1.892792e+03,8.779373e+02
1.904363e+03,8.641994e+02
1.915933e+03,8.644667e+02
1.927504e+03,8.590576e+02
1.939075e+03,8.457686e+02
1.950646e+03,8.427079e+02
1.962217e+03,8.431721e+02
1.973787e+03,8.200933e+02
1.985358e+03,8.073616e+02
1.996929e+03,7.901956e+02
2.008500e+03,7.814580e+02
2.020071e+03,7.754308e+02
2.031641e+03,7.578464e+02
2.043212e+03,7.486537e+02
2.054783e+03,7.536444e+02
2.066354e+03,7.380518e+02
2.077925e+03,7.321132e+02
2.089496e+03,7.198524e+02
2.101066e+03,7.120108e+02
2.112637e+03,7.057374e+02
2.124208e+03,6.986615e+02
2.135779e+03,6.861469e+02
2.147350e+03,6.620971e+02
2.158920e+03,6.501583e+02
2.170491e+03,6.502448e+02
2.182062e+03,6.447924e+02
2.193633e+03,6.266017e+02
2.205204e+03,6.352691e+02
2.216774e+03,6.365257e+02
2.228345e+03,6.190659e+02
2.239916e+03,6.138670e+02
2.251487e+03,6.024470e+02
2.263058e+03,5.976078e+02
2.274628e+03,5.858320e+02
2.286199e+03,5.752721e+02
2.297770e+03,5.689298e+02
2.309341e+03,5.628489e+02
2.320912e+03,5.492813e+02
2.332482e+03,5.467108e+02
2.344053e+03,5.376296e+02
2.355624e+03,5.310591e+02
2.367195e+03,5.272916e+02
2.378766e+03,5.263655e+02
2.390336e+03,5.190893e+02
2.401907e+03,5.086818e+02
2.413478e+03,4.916519e+02
2.425049e+03,4.974874e+02
2.436620e+03,4.901004e+02
2.448190e+03,4.929755e+02
2.459761e+03,4.839389e+02
2.471332e+03,4.614049e+02
2.482903e+03,4.709575e+02
2.494474e+03,4.584968e+02
2.506044e+03,4.609167e+02
2.517615e+03,4.662119e+02
2.529186e+03,4.585589e+02
2.540757e+03,4.590706e+02
2.552328e+03,4.559676e+02
2.563898e+03,4.503892e+02
2.575469e+03,4.433608e+02
2.587040e+03,4.224991e+02
2.598611e+03,4.249409e+02
2.610182e+03,4.206913e+02
2.621752e+03,4.268584e+02
2.633323e+03,4.192701e+02
2.644894e+03,4.166011e+02
2.656465e+03,4.148669e+02
2.668036e+03,4.286254e+02
2.679606e+03,4.032896e+02
2.691177e+03,4.071107e+02
2.702748e+03,4.009590e+02
2.714319e+03,3.926314e+02
2.725890e+03,3.857368e+02
2.737460e+03,3.886114e+02
2.749031e+03,3.960972e+02
2.760602e+03,3.761242e+02
2.772173e+03,3.779317e+02
2.783744e+03,3.723481e+02
2.795314e+03,3.638363e+02
2.806885e+03,3.767563e+02
2.818456e+03,3.528788e+02
2.830027e+03,3.617463e+02
2.841598e+03,3.759808e+02
2.853168e+03,3.741889e+02
2.864739e+03,3.732467e+02
2.876310e+03,3.845670e+02
2.887881e+03,3.893874e+02
2.899452e+03,3.964286e+02
2.911022e+03,3.886888e+02
2.922593e+03,3.632834e+02
2.934164e+03,3.623763e+02
2.945735e+03,3.525477e+02
2.957306e+03,3.916860e+02
2.968876e+03,3.473072e+02
2.980447e+03,3.368976e+02
2.992018e+03,3.320703e+02
3.003589e+03,3.265232e+02
3.015160e+03,3.149284e+02
3.026730e+03,2.967127e+02
3.038301e+03,3.127517e+02
3.049872e+03,3.025117e+02
3.061443e+03,2.990792e+02
3.073014e+03,3.044071e+02
3.084584e+03,3.150558e+02
3.096155e+03,2.975343e+02
3.107726e+03,3.034628e+02
3.119297e+03,3.146705e+02
3.130868e+03,3.215785e+02
3.142438e+03,3.019581e+02
3.154009e+03,3.158456e+02
3.165580e+03,3.195288e+02
3.177151e+03,3.142582e+02
3.188722e+03,3.032731e+02
3.200292e+03,3.216768e+02
3.211863e+03,0.000000e+00
3.223434e+03,0.000000e+00
3.235005e+03,0.000000e+00
3.246576e+03,0.000000e+00
3.258146e+03,0.000000e+00
3.269717e+03,0.000000e+00
3.281288e+03,0.000000e+00
3.292859e+03,0.000000e+00
3.304430e+03,0.000000e+00
3.316000e+03,0.000000e+00
3.327571e+03,0.000000e+00
3.339142e+03,0.000000e+00
3.350713e+03,0.000000e+00
3.362284e+03,0.000000e+00
3.373854e+03,0.000000e+00
3.385425e+03,0.000000e+00
3.396996e+03,0.000000e+00
3.408567e+03,0.000000e+00
3.420138e+03,0.000000e+00
3.431708e+03,0.000000e+00
3.443279e+03,0.000000e+00
3.454850e+03,0.000000e+00
3.466421e+03,0.000000e+00
3.477992e+03,0.000000e+00
3.489563e+03,0.000000e+00
3.500169e+03,0.000000e+00