File: RAMAN_data/14032024_r1/blue fibre1.CSV
9.931763e+01,0.000000e+00
1.108884e+02,0.000000e+00
1.224592e+02,0.000000e+00
1.340300e+02,0.000000e+00
1.456008e+02,0.000000e+00
1.571716e+02,0.000000e+00
1.687424e+02,0.000000e+00
1.803132e+02,0.000000e+00
1.918840e+02,0.000000e+00
2.034548e+02,1.050865e+03
2.150256e+02,1.058031e+03
2.265964e+02,1.046600e+03
2.381673e+02,1.050037e+03
2.497381e+02,1.058100e+03
2.613088e+02,1.058748e+03
2.728796e+02,1.050443e+03
2.844504e+02,1.061196e+03
2.960212e+02,1.058737e+03
3.075920e+02,1.062096e+03
3.191628e+02,1.061442e+03
3.307336e+02,1.066139e+03
3.423044e+02,1.060117e+03
3.538752e+02,1.056250e+03
3.654461e+02,1.055562e+03
3.770169e+02,1.082911e+03
3.885877e+02,1.049975e+03
4.001585e+02,1.048596e+03
4.117293e+02,1.047473e+03
4.233001e+02,1.041505e+03
4.348709e+02,1.047945e+03
4.464417e+02,1.035179e+03
4.580125e+02,1.039682e+03
4.695833e+02,1.016166e+03
4.811541e+02,1.024275e+03
4.927249e+02,1.025214e+03
5.042957e+02,1.011110e+03
5.158665e+02,1.012915e+03
5.274373e+02,1.013040e+03
5.390081e+02,9.987205e+02
5.505789e+02,9.919334e+02
5.621497e+02,9.919265e+02
5.737205e+02,9.809046e+02
5.852913e+02,9.725695e+02
5.968621e+02,9.779853e+02
6.084329e+02,9.708932e+02
6.200037e+02,9.629341e+02
6.315745e+02,9.513723e+02
6.431453e+02,9.474278e+02
6.547161e+02,9.507292e+02
6.662869e+02,9.388366e+02
6.778577e+02,9.359124e+02
6.894285e+02,9.314908e+02
7.009993e+02,9.241213e+02
7.125701e+02,9.180609e+02
7.241409e+02,9.137743e+02
7.357117e+02,8.981259e+02
7.472825e+02,8.865322e+02
7.588533e+02,8.894745e+02
7.704241e+02,8.811083e+02
7.819949e+02,8.761570e+02
7.935657e+02,8.705789e+02
8.051365e+02,8.635461e+02
8.167073e+02,8.535880e+02
8.282781e+02,8.401307e+02
8.398489e+02,8.419890e+02
8.514197e+02,8.446156e+02
8.629905e+02,8.332286e+02
8.745613e+02,8.220789e+02
8.861321e+02,8.385552e+02
8.977029e+02,8.246256e+02
9.092737e+02,8.122743e+02
9.208445e+02,8.036241e+02
9.324153e+02,7.962217e+02
9.439861e+02,7.773497e+02
9.555569e+02,7.916988e+02
9.671277e+02,7.767426e+02
9.786985e+02,7.746086e+02
9.902693e+02,7.704374e+02
1.001840e+03,7.575912e+02
1.013411e+03,7.609148e+02
1.024982e+03,7.490075e+02
1.036552e+03,7.486320e+02
1.048123e+03,7.390056e+02
1.059694e+03,7.460051e+02
1.071265e+03,7.445869e+02
1.082836e+03,7.470992e+02
1.094406e+03,7.647701e+02
1.105977e+03,7.394249e+02
1.117548e+03,7.437789e+02
1.129119e+03,7.215840e+02
1.140690e+03,7.109604e+02
1.152261e+03,7.159079e+02
1.163831e+03,7.065480e+02
1.175402e+03,6.893707e+02
1.186973e+03,6.923481e+02
1.198544e+03,6.910812e+02
1.210115e+03,6.782106e+02
1.221685e+03,6.872524e+02
1.233256e+03,6.784815e+02
1.244827e+03,6.758192e+02
1.256398e+03,6.684542e+02
1.267969e+03,6.564981e+02
1.279539e+03,6.676866e+02
1.291110e+03,6.683408e+02
1.302681e+03,6.624408e+02
1.314252e+03,6.589482e+02
1.325823e+03,6.659495e+02
1.337393e+03,6.653710e+02
1.348964e+03,6.574816e+02
1.360535e+03,6.502433e+02
1.372106e+03,6.551627e+02
1.383677e+03,6.478915e+02
1.395247e+03,6.366463e+02
1.406818e+03,6.373332e+02
1.418389e+03,6.396589e+02
1.429960e+03,6.236074e+02
1.441531e+03,6.161328e+02
1.453101e+03,6.072897e+02
1.464672e+03,6.215462e+02
1.476243e+03,6.096804e+02
1.487814e+03,5.956608e+02
1.499385e+03,5.882120e+02
1.510955e+03,5.870863e+02
1.522526e+03,5.864288e+02
1.534097e+03,5.846318e+02
1.545668e+03,5.777932e+02
1.557239e+03,5.797487e+02
1.568809e+03,5.754783e+02
1.580380e+03,5.722330e+02
1.591951e+03,5.604262e+02
1.603522e+03,5.642637e+02
1.615093e+03,5.671843e+02
1.626663e+03,5.548789e+02
1.638234e+03,5.448185e+02
1.649805e+03,5.395455e+02
1.661376e+03,5.444639e+02
1.672947e+03,5.332225e+02
1.684517e+03,5.291874e+02
1.696088e+03,5.282105e+02
1.707659e+03,5.275454e+02
1.719230e+03,5.167633e+02
1.730801e+03,5.196158e+02
1.742371e+03,5.126786e+02
1.753942e+03,5.044322e+02
1.765513e+03,4.972611e+02
1.777084e+03,4.929893e+02
1.788655e+03,4.904862e+02
1.800225e+03,4.849342e+02
1.811796e+03,4.825010e+02
1.823367e+03,4.793726e+02
1.834938e+03,4.750432e+02
1.846509e+03,4.635003e+02
1.858079e+03,4.604173e+02
1.869650e+03,4.496339e+02
1.881221e+03,4.515805e+02
1.892792e+03,4.458731e+02
1.904363e+03,4.439666e+02
1.915933e+03,4.417395e+02
1.927504e+03,4.311914e+02
1.939075e+03,4.268969e+02
1.950646e+03,4.226681e+02
1.962217e+03,4.263152e+02
1.973787e+03,4.192227e+02
1.985358e+03,4.078626e+02
1.996929e+03,4.077077e+02
2.008500e+03,4.018889e+02
2.020071e+03,3.911608e+02
2.031641e+03,3.908177e+02
2.043212e+03,3.769404e+02
2.054783e+03,3.787226e+02
2.066354e+03,3.731876e+02
2.077925e+03,3.674872e+02
2.089496e+03,3.727220e+02
2.101066e+03,3.632168e+02
2.112637e+03,3.653959e+02
2.124208e+03,3.548631e+02
2.135779e+03,3.435317e+02
2.147350e+03,3.402040e+02
2.158920e+03,3.426071e+02
2.170491e+03,3.329872e+02
2.182062e+03,3.339603e+02
2.193633e+03,3.271694e+02
2.205204e+03,3.265179e+02
2.216774e+03,3.227258e+02
2.228345e+03,3.073456e+02
2.239916e+03,3.228847e+02
2.251487e+03,3.124996e+02
2.263058e+03,3.074091e+02
2.274628e+03,3.001023e+02
2.286199e+03,2.929750e+02
2.297770e+03,3.038610e+02
2.309341e+03,2.917024e+02
2.320912e+03,2.907761e+02
2.332482e+03,2.752297e+02
2.344053e+03,2.818896e+02
2.355624e+03,2.768007e+02
2.367195e+03,2.682271e+02
2.378766e+03,2.672357e+02
2.390336e+03,2.697640e+02
2.401907e+03,2.712495e+02
2.413478e+03,2.563383e+02
2.425049e+03,2.516181e+02
2.436620e+03,2.557767e+02
2.448190e+03,2.481543e+02
2.459761e+03,2.453203e+02
2.471332e+03,2.428279e+02
2.482903e+03,2.427228e+02
2.494474e+03,2.436128e+02
2.506044e+03,2.506267e+02
2.517615e+03,2.384089e+02
2.529186e+03,2.355485e+02
2.540757e+03,2.313488e+02
2.552328e+03,2.378205e+02
2.563898e+03,2.334596e+02
2.575469e+03,2.289236e+02
2.587040e+03,2.291657e+02
2.598611e+03,2.221787e+02
2.610182e+03,2.219044e+02
2.621752e+03,2.171502e+02
2.633323e+03,2.155831e+02
2.644894e+03,2.143482e+02
2.656465e+03,2.192351e+02
2.668036e+03,2.061565e+02
2.679606e+03,2.134031e+02
2.691177e+03,2.115097e+02
2.702748e+03,2.106309e+02
2.714319e+03,2.058486e+02
2.725890e+03,2.057158e+02
2.737460e+03,2.047800e+02
2.749031e+03,2.018140e+02
2.760602e+03,2.061656e+02
2.772173e+03,1.982820e+02
2.783744e+03,1.997181e+02
2.795314e+03,1.972658e+02
2.806885e+03,1.812798e+02
2.818456e+03,1.820852e+02
2.830027e+03,1.915513e+02
2.841598e+03,1.978796e+02
2.853168e+03,2.115134e+02
2.864739e+03,1.957105e+02
2.876310e+03,2.103512e+02
2.887881e+03,2.365475e+02
2.899452e+03,2.355793e+02
2.911022e+03,2.219189e+02
2.922593e+03,2.134748e+02
2.934164e+03,2.039998e+02
2.945735e+03,1.902476e+02
2.957306e+03,2.258544e+02
2.968876e+03,1.888717e+02
2.980447e+03,1.905100e+02
2.992018e+03,1.796093e+02
3.003589e+03,1.742653e+02
3.015160e+03,1.660614e+02
3.026730e+03,1.684783e+02
3.038301e+03,1.714300e+02
3.049872e+03,1.778204e+02
3.061443e+03,1.904187e+02
3.073014e+03,1.625578e+02
3.084584e+03,1.611853e+02
3.096155e+03,1.733750e+02
3.107726e+03,1.859337e+02
3.119297e+03,1.631688e+02
3.130868e+03,1.746826e+02
3.142438e+03,1.707181e+02
3.154009e+03,1.811723e+02
3.165580e+03,1.920772e+02
3.177151e+03,1.780739e+02
3.188722e+03,1.690144e+02
3.200292e+03,1.910350e+02
3.211863e+03,0.000000e+00
3.223434e+03,0.000000e+00
3.235005e+03,0.000000e+00
3.246576e+03,0.000000e+00
3.258146e+03,0.000000e+00
3.269717e+03,0.000000e+00
3.281288e+03,0.000000e+00
3.292859e+03,0.000000e+00
3.304430e+03,0.000000e+00
3.316000e+03,0.000000e+00
3.327571e+03,0.000000e+00
3.339142e+03,0.000000e+00
3.350713e+03,0.000000e+00
3.362284e+03,0.000000e+00
3.373854e+03,0.000000e+00
3.385425e+03,0.000000e+00
3.396996e+03,0.000000e+00
3.408567e+03,0.000000e+00
3.420138e+03,0.000000e+00
3.431708e+03,0.000000e+00
3.443279e+03,0.000000e+00
3.454850e+03,0.000000e+00
3.466421e+03,0.000000e+00
3.477992e+03,0.000000e+00
3.489563e+03,0.000000e+00
3.500169e+03,0.000000e+00