File: RAMAN_data/14032024_r1/clear frag1.CSV
9.931763e+01,0.000000e+00
1.108884e+02,0.000000e+00
1.224592e+02,0.000000e+00
1.340300e+02,0.000000e+00
1.456008e+02,0.000000e+00
1.571716e+02,0.000000e+00
1.687424e+02,0.000000e+00
1.803132e+02,0.000000e+00
1.918840e+02,0.000000e+00
2.034548e+02,7.473187e+02
2.150256e+02,7.413024e+02
2.265964e+02,7.387188e+02
2.381673e+02,7.428322e+02
2.497381e+02,7.404774e+02
2.613088e+02,7.411386e+02
2.728796e+02,7.366009e+02
2.844504e+02,7.346383e+02
2.960212e+02,7.396688e+02
3.075920e+02,7.417482e+02
3.191628e+02,7.357577e+02
3.307336e+02,7.301827e+02
3.423044e+02,7.345605e+02
3.538752e+02,7.348715e+02
3.654461e+02,7.357693e+02
3.770169e+02,7.485006e+02
3.885877e+02,7.298586e+02
4.001585e+02,7.242275e+02
4.117293e+02,7.162003e+02
4.233001e+02,7.131096e+02
4.348709e+02,7.200371e+02
4.464417e+02,7.086153e+02
4.580125e+02,7.136400e+02
4.695833e+02,6.949028e+02
4.811541e+02,6.986540e+02
4.927249e+02,6.921870e+02
5.042957e+02,6.862845e+02
5.158665e+02,6.957256e+02
5.274373e+02,6.756008e+02
5.390081e+02,6.752735e+02
5.505789e+02,6.667250e+02
5.621497e+02,6.664049e+02
5.737205e+02,6.602888e+02
5.852913e+02,6.548787e+02
5.968621e+02,6.516212e+02
6.084329e+02,6.528087e+02
6.200037e+02,6.497679e+02
6.315745e+02,6.377258e+02
6.431453e+02,6.301729e+02
6.547161e+02,6.309164e+02
6.662869e+02,6.326287e+02
6.778577e+02,6.302610e+02
6.894285e+02,6.171893e+02
7.009993e+02,6.151593e+02
7.125701e+02,6.096788e+02
7.241409e+02,6.083477e+02
7.357117e+02,6.024811e+02
7.472825e+02,5.955040e+02
7.588533e+02,5.962258e+02
7.704241e+02,5.891469e+02
7.819949e+02,5.873928e+02
7.935657e+02,5.807930e+02
8.051365e+02,5.816576e+02
8.167073e+02,5.746949e+02
8.282781e+02,5.723698e+02
8.398489e+02,5.718914e+02
8.514197e+02,5.582384e+02
8.629905e+02,5.630574e+02
8.745613e+02,5.614191e+02
8.861321e+02,5.641850e+02
8.977029e+02,5.480873e+02
9.092737e+02,5.488286e+02
9.208445e+02,5.363530e+02
9.324153e+02,5.329539e+02
9.439861e+02,5.260832e+02
9.555569e+02,5.275627e+02
9.671277e+02,5.293765e+02
9.786985e+02,5.213356e+02
9.902693e+02,5.218490e+02
1.001840e+03,5.117808e+02
1.013411e+03,5.102169e+02
1.024982e+03,5.100659e+02
1.036552e+03,5.089837e+02
1.048123e+03,5.125931e+02
1.059694e+03,5.223621e+02
1.071265e+03,5.044802e+02
1.082836e+03,5.161835e+02
1.094406e+03,5.378326e+02
1.105977e+03,5.150396e+02
1.117548e+03,5.192449e+02
1.129119e+03,5.166005e+02
1.140690e+03,4.891683e+02
1.152261e+03,4.887910e+02
1.163831e+03,4.803838e+02
1.175402e+03,4.792448e+02
1.186973e+03,4.746545e+02
1.198544e+03,4.729022e+02
1.210115e+03,4.672120e+02
1.221685e+03,4.636106e+02
1.233256e+03,4.607161e+02
1.244827e+03,4.646013e+02
1.256398e+03,4.683563e+02
1.267969e+03,4.612013e+02
1.279539e+03,4.639015e+02
1.291110e+03,4.856732e+02
1.302681e+03,4.670656e+02
1.314252e+03,4.596603e+02
1.325823e+03,4.623313e+02
1.337393e+03,4.609298e+02
1.348964e+03,4.624226e+02
1.360535e+03,4.557423e+02
1.372106e+03,4.577482e+02
1.383677e+03,4.498409e+02
1.395247e+03,4.395758e+02
1.406818e+03,4.411198e+02
1.418389e+03,4.414223e+02
1.429960e+03,4.416449e+02
1.441531e+03,4.438853e+02
1.453101e+03,4.411860e+02
1.464672e+03,4.365713e+02
1.476243e+03,4.347202e+02
1.487814e+03,4.250981e+02
1.499385e+03,4.124323e+02
1.510955e+03,4.174311e+02
1.522526e+03,4.095420e+02
1.534097e+03,4.145644e+02
1.545668e+03,4.042081e+02
1.557239e+03,4.060454e+02
1.568809e+03,4.033185e+02
1.580380e+03,4.005263e+02
1.591951e+03,4.063363e+02
1.603522e+03,4.036257e+02
1.615093e+03,3.956478e+02
1.626663e+03,3.895661e+02
1.638234e+03,3.893479e+02
1.649805e+03,3.904252e+02
1.661376e+03,3.849276e+02
1.672947e+03,3.754576e+02
1.684517e+03,3.771055e+02
1.696088e+03,3.675231e+02
1.707659e+03,3.782131e+02
1.719230e+03,3.683859e+02
1.730801e+03,3.674348e+02
1.742371e+03,3.646519e+02
1.753942e+03,3.600465e+02
1.765513e+03,3.594622e+02
1.777084e+03,3.602359e+02
1.788655e+03,3.469133e+02
1.800225e+03,3.501912e+02
1.811796e+03,3.431391e+02
1.823367e+03,3.412757e+02
1.834938e+03,3.416133e+02
1.846509e+03,3.336565e+02
1.858079e+03,3.354072e+02
1.869650e+03,3.248306e+02
1.881221e+03,3.216981e+02
1.892792e+03,3.251316e+02
1.904363e+03,3.153564e+02
1.915933e+03,3.215952e+02
1.927504e+03,3.085978e+02
1.939075e+03,3.132091e+02
1.950646e+03,3.055541e+02
1.962217e+03,3.105590e+02
1.973787e+03,3.053281e+02
1.985358e+03,2.982468e+02
1.996929e+03,2.973642e+02
2.008500e+03,2.947789e+02
2.020071e+03,2.912778e+02
2.031641e+03,2.790923e+02
2.043212e+03,2.848724e+02
2.054783e+03,2.747997e+02
2.066354e+03,2.788794e+02
2.077925e+03,2.688448e+02
2.089496e+03,2.748065e+02
2.101066e+03,2.709397e+02
2.112637e+03,2.630121e+02
2.124208e+03,2.610641e+02
2.135779e+03,2.607093e+02
2.147350e+03,2.533666e+02
2.158920e+03,2.484161e+02
2.170491e+03,2.551473e+02
2.182062e+03,2.555894e+02
2.193633e+03,2.392282e+02
2.205204e+03,2.415708e+02
2.216774e+03,2.357081e+02
2.228345e+03,2.331203e+02
2.239916e+03,2.320286e+02
2.251487e+03,2.307889e+02
2.263058e+03,2.346557e+02
2.274628e+03,2.273822e+02
2.286199e+03,2.240009e+02
2.297770e+03,2.277739e+02
2.309341e+03,2.210511e+02
2.320912e+03,2.153335e+02
2.332482e+03,2.188795e+02
2.344053e+03,2.182163e+02
2.355624e+03,2.077485e+02
2.367195e+03,2.060218e+02
2.378766e+03,2.144900e+02
2.390336e+03,2.020030e+02
2.401907e+03,2.062639e+02
2.413478e+03,1.955511e+02
2.425049e+03,1.874285e+02
2.436620e+03,1.952059e+02
2.448190e+03,1.853917e+02
2.459761e+03,1.899567e+02
2.471332e+03,1.925140e+02
2.482903e+03,1.857894e+02
2.494474e+03,1.843814e+02
2.506044e+03,1.867538e+02
2.517615e+03,1.827032e+02
2.529186e+03,1.739497e+02
2.540757e+03,1.821421e+02
2.552328e+03,1.853389e+02
2.563898e+03,1.915105e+02
2.575469e+03,1.804378e+02
2.587040e+03,1.709113e+02
2.598611e+03,1.751004e+02
2.610182e+03,1.708640e+02
2.621752e+03,1.728157e+02
2.633323e+03,1.790317e+02
2.644894e+03,1.690430e+02
2.656465e+03,1.728331e+02
2.668036e+03,1.725825e+02
2.679606e+03,1.724254e+02
2.691177e+03,1.669071e+02
2.702748e+03,1.774977e+02
2.714319e+03,1.726338e+02
2.725890e+03,1.612897e+02
2.737460e+03,1.664164e+02
2.749031e+03,1.653811e+02
2.760602e+03,1.615350e+02
2.772173e+03,1.659979e+02
2.783744e+03,1.681202e+02
2.795314e+03,1.557951e+02
2.806885e+03,1.554335e+02
2.818456e+03,1.536134e+02
2.830027e+03,1.822804e+02
2.841598e+03,2.053979e+02
2.853168e+03,2.217824e+02
2.864739e+03,1.971674e+02
2.876310e+03,2.365959e+02
2.887881e+03,2.321426e+02
2.899452e+03,2.337051e+02
2.911022e+03,2.115100e+02
2.922593e+03,1.856656e+02
2.934164e+03,1.877110e+02
2.945735e+03,1.919839e+02
2.957306e+03,2.059873e+02
2.968876e+03,1.600454e+02
2.980447e+03,1.420648e+02
2.992018e+03,1.680172e+02
3.003589e+03,1.599094e+02
3.015160e+03,1.619676e+02
3.026730e+03,1.432955e+02
3.038301e+03,1.550707e+02
3.049872e+03,1.518453e+02
3.061443e+03,1.541260e+02
3.073014e+03,1.393567e+02
3.084584e+03,1.355591e+02
3.096155e+03,1.339896e+02
3.107726e+03,1.577254e+02
3.119297e+03,1.613535e+02
3.130868e+03,1.603283e+02
3.142438e+03,1.539324e+02
3.154009e+03,1.833983e+02
3.165580e+03,1.626804e+02
3.177151e+03,1.554987e+02
3.188722e+03,1.507888e+02
3.200292e+03,1.588963e+02
3.211863e+03,0.000000e+00
3.223434e+03,0.000000e+00
3.235005e+03,0.000000e+00
3.246576e+03,0.000000e+00
3.258146e+03,0.000000e+00
3.269717e+03,0.000000e+00
3.281288e+03,0.000000e+00
3.292859e+03,0.000000e+00
3.304430e+03,0.000000e+00
3.316000e+03,0.000000e+00
3.327571e+03,0.000000e+00
3.339142e+03,0.000000e+00
3.350713e+03,0.000000e+00
3.362284e+03,0.000000e+00
3.373854e+03,0.000000e+00
3.385425e+03,0.000000e+00
3.396996e+03,0.000000e+00
3.408567e+03,0.000000e+00
3.420138e+03,0.000000e+00
3.431708e+03,0.000000e+00
3.443279e+03,0.000000e+00
3.454850e+03,0.000000e+00
3.466421e+03,0.000000e+00
3.477992e+03,0.000000e+00
3.489563e+03,0.000000e+00
3.500169e+03,0.000000e+00