File: RAMAN_data/14032024_r1/red fibre2.CSV
9.931763e+01,0.000000e+00
1.108884e+02,0.000000e+00
1.224592e+02,0.000000e+00
1.340300e+02,0.000000e+00
1.456008e+02,0.000000e+00
1.571716e+02,0.000000e+00
1.687424e+02,0.000000e+00
1.803132e+02,0.000000e+00
1.918840e+02,0.000000e+00
2.034548e+02,5.006845e+02
2.150256e+02,5.041503e+02
2.265964e+02,5.030373e+02
2.381673e+02,5.044428e+02
2.497381e+02,5.057109e+02
2.613088e+02,5.067452e+02
2.728796e+02,5.014765e+02
2.844504e+02,5.096537e+02
2.960212e+02,5.117872e+02
3.075920e+02,5.097202e+02
3.191628e+02,5.116695e+02
3.307336e+02,5.197546e+02
3.423044e+02,5.178475e+02
3.538752e+02,5.177009e+02
3.654461e+02,5.194411e+02
3.770169e+02,5.376525e+02
3.885877e+02,5.178690e+02
4.001585e+02,5.135054e+02
4.117293e+02,5.052389e+02
4.233001e+02,5.116989e+02
4.348709e+02,5.284680e+02
4.464417e+02,5.144763e+02
4.580125e+02,5.138564e+02
4.695833e+02,5.056287e+02
4.811541e+02,5.008380e+02
4.927249e+02,5.050461e+02
5.042957e+02,5.018445e+02
5.158665e+02,5.099837e+02
5.274373e+02,5.025602e+02
5.390081e+02,5.054401e+02
5.505789e+02,4.990620e+02
5.621497e+02,5.031481e+02
5.737205e+02,5.013588e+02
5.852913e+02,4.960493e+02
5.968621e+02,4.933425e+02
6.084329e+02,5.017709e+02
6.200037e+02,4.917522e+02
6.315745e+02,4.875958e+02
6.431453e+02,4.865272e+02
6.547161e+02,4.870418e+02
6.662869e+02,4.773396e+02
6.778577e+02,4.772745e+02
6.894285e+02,4.855889e+02
7.009993e+02,4.757845e+02
7.125701e+02,4.830970e+02
7.241409e+02,4.766294e+02
7.357117e+02,4.795748e+02
7.472825e+02,4.714100e+02
7.588533e+02,4.743975e+02
7.704241e+02,4.668119e+02
7.819949e+02,4.760912e+02
7.935657e+02,4.662290e+02
8.051365e+02,4.672434e+02
8.167073e+02,4.585201e+02
8.282781e+02,4.657049e+02
8.398489e+02,4.662284e+02
8.514197e+02,4.576295e+02
8.629905e+02,4.585956e+02
8.745613e+02,4.640284e+02
8.861321e+02,4.706134e+02
8.977029e+02,4.564715e+02
9.092737e+02,4.567277e+02
9.208445e+02,4.504955e+02
9.324153e+02,4.550844e+02
9.439861e+02,4.468856e+02
9.555569e+02,4.524974e+02
9.671277e+02,4.496320e+02
9.786985e+02,4.496393e+02
9.902693e+02,4.525359e+02
1.001840e+03,4.456970e+02
1.013411e+03,4.427669e+02
1.024982e+03,4.462257e+02
1.036552e+03,4.457316e+02
1.048123e+03,4.473335e+02
1.059694e+03,4.519986e+02
1.071265e+03,4.497798e+02
1.082836e+03,4.559137e+02
1.094406e+03,4.799981e+02
1.105977e+03,4.658643e+02
1.117548e+03,4.749017e+02
1.129119e+03,4.554588e+02
1.140690e+03,4.446691e+02
1.152261e+03,4.559966e+02
1.163831e+03,4.451697e+02
1.175402e+03,4.474727e+02
1.186973e+03,4.375006e+02
1.198544e+03,4.358852e+02
1.210115e+03,4.417190e+02
1.221685e+03,4.370426e+02
1.233256e+03,4.370970e+02
1.244827e+03,4.381962e+02
1.256398e+03,4.433604e+02
1.267969e+03,4.464117e+02
1.279539e+03,4.470983e+02
1.291110e+03,4.454930e+02
1.302681e+03,4.453459e+02
1.314252e+03,4.450995e+02
1.325823e+03,4.538556e+02
1.337393e+03,4.550499e+02
1.348964e+03,4.519849e+02
1.360535e+03,4.539152e+02
1.372106e+03,4.558223e+02
1.383677e+03,4.511129e+02
1.395247e+03,4.436193e+02
1.406818e+03,4.369398e+02
1.418389e+03,4.386452e+02
1.429960e+03,4.336650e+02
1.441531e+03,4.390219e+02
1.453101e+03,4.365800e+02
1.464672e+03,4.303395e+02
1.476243e+03,4.355554e+02
1.487814e+03,4.261942e+02
1.499385e+03,4.273530e+02
1.510955e+03,4.200938e+02
1.522526e+03,4.237426e+02
1.534097e+03,4.173569e+02
1.545668e+03,4.237253e+02
1.557239e+03,4.219051e+02
1.568809e+03,4.235719e+02
1.580380e+03,4.210772e+02
1.591951e+03,4.280568e+02
1.603522e+03,4.236028e+02
1.615093e+03,4.144315e+02
1.626663e+03,4.102306e+02
1.638234e+03,4.127730e+02
1.649805e+03,4.086141e+02
1.661376e+03,4.071085e+02
1.672947e+03,4.017805e+02
1.684517e+03,4.045571e+02
1.696088e+03,3.910501e+02
1.707659e+03,4.000378e+02
1.719230e+03,3.990541e+02
1.730801e+03,3.937995e+02
1.742371e+03,3.893791e+02
1.753942e+03,3.876615e+02
1.765513e+03,3.868785e+02
1.777084e+03,3.824363e+02
1.788655e+03,3.828061e+02
1.800225e+03,3.800305e+02
1.811796e+03,3.701708e+02
1.823367e+03,3.711328e+02
1.834938e+03,3.721340e+02
1.846509e+03,3.680918e+02
1.858079e+03,3.679453e+02
1.869650e+03,3.704392e+02
1.881221e+03,3.645116e+02
1.892792e+03,3.622746e+02
1.904363e+03,3.538502e+02
1.915933e+03,3.550287e+02
1.927504e+03,3.534610e+02
1.939075e+03,3.462309e+02
1.950646e+03,3.570648e+02
1.962217e+03,3.543922e+02
1.973787e+03,3.491996e+02
1.985358e+03,3.400089e+02
1.996929e+03,3.423603e+02
2.008500e+03,3.339168e+02
2.020071e+03,3.363788e+02
2.031641e+03,3.293105e+02
2.043212e+03,3.259435e+02
2.054783e+03,3.295312e+02
2.066354e+03,3.242939e+02
2.077925e+03,3.228251e+02
2.089496e+03,3.187509e+02
2.101066e+03,3.142693e+02
2.112637e+03,3.147369e+02
2.124208e+03,3.072239e+02
2.135779e+03,3.169413e+02
2.147350e+03,2.985722e+02
2.158920e+03,3.064185e+02
2.170491e+03,3.107451e+02
2.182062e+03,2.989320e+02
2.193633e+03,3.000497e+02
2.205204e+03,3.034080e+02
2.216774e+03,2.963293e+02
2.228345e+03,2.959651e+02
2.239916e+03,2.893121e+02
2.251487e+03,2.872740e+02
2.263058e+03,2.864544e+02
2.274628e+03,2.879640e+02
2.286199e+03,2.811349e+02
2.297770e+03,2.726466e+02
2.309341e+03,2.726012e+02
2.320912e+03,2.794975e+02
2.332482e+03,2.749103e+02
2.344053e+03,2.727735e+02
2.355624e+03,2.683355e+02
2.367195e+03,2.631435e+02
2.378766e+03,2.615092e+02
2.390336e+03,2.608473e+02
2.401907e+03,2.641651e+02
2.413478e+03,2.627651e+02
2.425049e+03,2.586182e+02
2.436620e+03,2.603644e+02
2.448190e+03,2.518742e+02
2.459761e+03,2.491987e+02
2.471332e+03,2.470462e+02
2.482903e+03,2.464019e+02
2.494474e+03,2.473841e+02
2.506044e+03,2.580241e+02
2.517615e+03,2.495870e+02
2.529186e+03,2.395193e+02
2.540757e+03,2.443066e+02
2.552328e+03,2.583457e+02
2.563898e+03,2.547173e+02
2.575469e+03,2.411820e+02
2.587040e+03,2.426873e+02
2.598611e+03,2.344655e+02
2.610182e+03,2.395289e+02
2.621752e+03,2.395901e+02
2.633323e+03,2.358222e+02
2.644894e+03,2.429900e+02
2.656465e+03,2.400546e+02
2.668036e+03,2.334249e+02
2.679606e+03,2.297285e+02
2.691177e+03,2.326347e+02
2.702748e+03,2.291640e+02
2.714319e+03,2.348806e+02
2.725890e+03,2.263878e+02
2.737460e+03,2.244072e+02
2.749031e+03,2.329098e+02
2.760602e+03,2.252663e+02
2.772173e+03,2.298618e+02
2.783744e+03,2.264158e+02
2.795314e+03,2.318027e+02
2.806885e+03,2.237304e+02
2.818456e+03,2.333787e+02
2.830027e+03,2.242480e+02
2.841598e+03,2.392985e+02
2.853168e+03,2.392005e+02
2.864739e+03,2.348959e+02
2.876310e+03,2.510799e+02
2.887881e+03,2.576493e+02
2.899452e+03,2.726204e+02
2.911022e+03,2.525456e+02
2.922593e+03,2.419539e+02
2.934164e+03,2.320306e+02
2.945735e+03,2.358358e+02
2.957306e+03,2.471814e+02
2.968876e+03,2.402639e+02
2.980447e+03,2.074248e+02
2.992018e+03,2.076862e+02
3.003589e+03,2.229448e+02
3.015160e+03,1.975557e+02
3.026730e+03,2.104133e+02
3.038301e+03,2.117767e+02
3.049872e+03,2.024577e+02
3.061443e+03,2.228871e+02
3.073014e+03,2.151404e+02
3.084584e+03,2.188447e+02
3.096155e+03,2.139220e+02
3.107726e+03,2.214536e+02
3.119297e+03,2.049918e+02
3.130868e+03,2.210060e+02
3.142438e+03,2.233725e+02
3.154009e+03,2.132052e+02
3.165580e+03,2.180597e+02
3.177151e+03,2.023772e+02
3.188722e+03,2.077531e+02
3.200292e+03,2.416330e+02
3.211863e+03,0.000000e+00
3.223434e+03,0.000000e+00
3.235005e+03,0.000000e+00
3.246576e+03,0.000000e+00
3.258146e+03,0.000000e+00
3.269717e+03,0.000000e+00
3.281288e+03,0.000000e+00
3.292859e+03,0.000000e+00
3.304430e+03,0.000000e+00
3.316000e+03,0.000000e+00
3.327571e+03,0.000000e+00
3.339142e+03,0.000000e+00
3.350713e+03,0.000000e+00
3.362284e+03,0.000000e+00
3.373854e+03,0.000000e+00
3.385425e+03,0.000000e+00
3.396996e+03,0.000000e+00
3.408567e+03,0.000000e+00
3.420138e+03,0.000000e+00
3.431708e+03,0.000000e+00
3.443279e+03,0.000000e+00
3.454850e+03,0.000000e+00
3.466421e+03,0.000000e+00
3.477992e+03,0.000000e+00
3.489563e+03,0.000000e+00
3.500169e+03,0.000000e+00