File: RAMAN_data/14032024_r1/red fibre4.CSV
9.931763e+01,0.000000e+00
1.108884e+02,0.000000e+00
1.224592e+02,0.000000e+00
1.340300e+02,0.000000e+00
1.456008e+02,0.000000e+00
1.571716e+02,0.000000e+00
1.687424e+02,0.000000e+00
1.803132e+02,0.000000e+00
1.918840e+02,0.000000e+00
2.034548e+02,5.656247e+02
2.150256e+02,5.670710e+02
2.265964e+02,5.633766e+02
2.381673e+02,5.676959e+02
2.497381e+02,5.731326e+02
2.613088e+02,5.636104e+02
2.728796e+02,5.685130e+02
2.844504e+02,5.660400e+02
2.960212e+02,5.610844e+02
3.075920e+02,5.703930e+02
3.191628e+02,5.752657e+02
3.307336e+02,5.740078e+02
3.423044e+02,5.799474e+02
3.538752e+02,5.770094e+02
3.654461e+02,5.776561e+02
3.770169e+02,6.057929e+02
3.885877e+02,5.712808e+02
4.001585e+02,5.598864e+02
4.117293e+02,5.584935e+02
4.233001e+02,5.645517e+02
4.348709e+02,5.796874e+02
4.464417e+02,5.627191e+02
4.580125e+02,5.687549e+02
4.695833e+02,5.494297e+02
4.811541e+02,5.516215e+02
4.927249e+02,5.485240e+02
5.042957e+02,5.439345e+02
5.158665e+02,5.558129e+02
5.274373e+02,5.365584e+02
5.390081e+02,5.355330e+02
5.505789e+02,5.403197e+02
5.621497e+02,5.383333e+02
5.737205e+02,5.307057e+02
5.852913e+02,5.311332e+02
5.968621e+02,5.267993e+02
6.084329e+02,5.233503e+02
6.200037e+02,5.240621e+02
6.315745e+02,5.245161e+02
6.431453e+02,5.203776e+02
6.547161e+02,5.125967e+02
6.662869e+02,5.100196e+02
6.778577e+02,5.063561e+02
6.894285e+02,5.061248e+02
7.009993e+02,5.025644e+02
7.125701e+02,5.115582e+02
7.241409e+02,5.016089e+02
7.357117e+02,5.007632e+02
7.472825e+02,4.942416e+02
7.588533e+02,4.914087e+02
7.704241e+02,4.906307e+02
7.819949e+02,4.941561e+02
7.935657e+02,4.848351e+02
8.051365e+02,4.847672e+02
8.167073e+02,4.809833e+02
8.282781e+02,4.837325e+02
8.398489e+02,4.742609e+02
8.514197e+02,4.737537e+02
8.629905e+02,4.733571e+02
8.745613e+02,4.774121e+02
8.861321e+02,4.840599e+02
8.977029e+02,4.768314e+02
9.092737e+02,4.752654e+02
9.208445e+02,4.720731e+02
9.324153e+02,4.634533e+02
9.439861e+02,4.597886e+02
9.555569e+02,4.614793e+02
9.671277e+02,4.529086e+02
9.786985e+02,4.512413e+02
9.902693e+02,4.532395e+02
1.001840e+03,4.489336e+02
1.013411e+03,4.465995e+02
1.024982e+03,4.509478e+02
1.036552e+03,4.491869e+02
1.048123e+03,4.486832e+02
1.059694e+03,4.504999e+02
1.071265e+03,4.522054e+02
1.082836e+03,4.606079e+02
1.094406e+03,4.996159e+02
1.105977e+03,4.651898e+02
1.117548e+03,4.779766e+02
1.129119e+03,4.530685e+02
1.140690e+03,4.386619e+02
1.152261e+03,4.418980e+02
1.163831e+03,4.263971e+02
1.175402e+03,4.202670e+02
1.186973e+03,4.116999e+02
1.198544e+03,4.148325e+02
1.210115e+03,4.085563e+02
1.221685e+03,4.062992e+02
1.233256e+03,4.142911e+02
1.244827e+03,4.096267e+02
1.256398e+03,4.071317e+02
1.267969e+03,4.025580e+02
1.279539e+03,4.076703e+02
1.291110e+03,4.169800e+02
1.302681e+03,4.078510e+02
1.314252e+03,4.111969e+02
1.325823e+03,4.095214e+02
1.337393e+03,4.129381e+02
1.348964e+03,4.154952e+02
1.360535e+03,4.081393e+02
1.372106e+03,4.160345e+02
1.383677e+03,4.107109e+02
1.395247e+03,3.911614e+02
1.406818e+03,3.914423e+02
1.418389e+03,3.877520e+02
1.429960e+03,3.851572e+02
1.441531e+03,3.837945e+02
1.453101e+03,3.842535e+02
1.464672e+03,3.802339e+02
1.476243e+03,3.791231e+02
1.487814e+03,3.696930e+02
1.499385e+03,3.616053e+02
1.510955e+03,3.633934e+02
1.522526e+03,3.603452e+02
1.534097e+03,3.601525e+02
1.545668e+03,3.570278e+02
1.557239e+03,3.528565e+02
1.568809e+03,3.551090e+02
1.580380e+03,3.507064e+02
1.591951e+03,3.561127e+02
1.603522e+03,3.525109e+02
1.615093e+03,3.462007e+02
1.626663e+03,3.476738e+02
1.638234e+03,3.423387e+02
1.649805e+03,3.335433e+02
1.661376e+03,3.279502e+02
1.672947e+03,3.285636e+02
1.684517e+03,3.282099e+02
1.696088e+03,3.238866e+02
1.707659e+03,3.220771e+02
1.719230e+03,3.194891e+02
1.730801e+03,3.234045e+02
1.742371e+03,3.143554e+02
1.753942e+03,3.212193e+02
1.765513e+03,3.138976e+02
1.777084e+03,3.101518e+02
1.788655e+03,3.127895e+02
1.800225e+03,3.060804e+02
1.811796e+03,3.040025e+02
1.823367e+03,2.948183e+02
1.834938e+03,2.992519e+02
1.846509e+03,2.932852e+02
1.858079e+03,2.929376e+02
1.869650e+03,2.898038e+02
1.881221e+03,2.873131e+02
1.892792e+03,2.853133e+02
1.904363e+03,2.746333e+02
1.915933e+03,2.832932e+02
1.927504e+03,2.806227e+02
1.939075e+03,2.760932e+02
1.950646e+03,2.718665e+02
1.962217e+03,2.761421e+02
1.973787e+03,2.675569e+02
1.985358e+03,2.715084e+02
1.996929e+03,2.570924e+02
2.008500e+03,2.550490e+02
2.020071e+03,2.579294e+02
2.031641e+03,2.597466e+02
2.043212e+03,2.466316e+02
2.054783e+03,2.473696e+02
2.066354e+03,2.508097e+02
2.077925e+03,2.428393e+02
2.089496e+03,2.406929e+02
2.101066e+03,2.304926e+02
2.112637e+03,2.343657e+02
2.124208e+03,2.346099e+02
2.135779e+03,2.386675e+02
2.147350e+03,2.319370e+02
2.158920e+03,2.196982e+02
2.170491e+03,2.287144e+02
2.182062e+03,2.244671e+02
2.193633e+03,2.242852e+02
2.205204e+03,2.205821e+02
2.216774e+03,2.201161e+02
2.228345e+03,2.148688e+02
2.239916e+03,2.104020e+02
2.251487e+03,2.114494e+02
2.263058e+03,2.171155e+02
2.274628e+03,2.041898e+02
2.286199e+03,2.016768e+02
2.297770e+03,2.031478e+02
2.309341e+03,2.003863e+02
2.320912e+03,1.935324e+02
2.332482e+03,1.958950e+02
2.344053e+03,1.991423e+02
2.355624e+03,1.924683e+02
2.367195e+03,1.885865e+02
2.378766e+03,1.859652e+02
2.390336e+03,1.852430e+02
2.401907e+03,1.911288e+02
2.413478e+03,1.806237e+02
2.425049e+03,1.780708e+02
2.436620e+03,1.807730e+02
2.448190e+03,1.780124e+02
2.459761e+03,1.702550e+02
2.471332e+03,1.761945e+02
2.482903e+03,1.744141e+02
2.494474e+03,1.736268e+02
2.506044e+03,1.749432e+02
2.517615e+03,1.684918e+02
2.529186e+03,1.619323e+02
2.540757e+03,1.705770e+02
2.552328e+03,1.779362e+02
2.563898e+03,1.757224e+02
2.575469e+03,1.704538e+02
2.587040e+03,1.715653e+02
2.598611e+03,1.613325e+02
2.610182e+03,1.576768e+02
2.621752e+03,1.648378e+02
2.633323e+03,1.593531e+02
2.644894e+03,1.558778e+02
2.656465e+03,1.530669e+02
2.668036e+03,1.574884e+02
2.679606e+03,1.523294e+02
2.691177e+03,1.475970e+02
2.702748e+03,1.555213e+02
2.714319e+03,1.557737e+02
2.725890e+03,1.460671e+02
2.737460e+03,1.512696e+02
2.749031e+03,1.577891e+02
2.760602e+03,1.516202e+02
2.772173e+03,1.462349e+02
2.783744e+03,1.530498e+02
2.795314e+03,1.420141e+02
2.806885e+03,1.461270e+02
2.818456e+03,1.538767e+02
2.830027e+03,1.591805e+02
2.841598e+03,1.672926e+02
2.853168e+03,1.756733e+02
2.864739e+03,1.639607e+02
2.876310e+03,1.949480e+02
2.887881e+03,2.130501e+02
2.899452e+03,2.166819e+02
2.911022e+03,1.987433e+02
2.922593e+03,1.816161e+02
2.934164e+03,1.775503e+02
2.945735e+03,1.639291e+02
2.957306e+03,2.139466e+02
2.968876e+03,1.613952e+02
2.980447e+03,1.370561e+02
2.992018e+03,1.519727e+02
3.003589e+03,1.346139e+02
3.015160e+03,1.481148e+02
3.026730e+03,1.278989e+02
3.038301e+03,1.272368e+02
3.049872e+03,1.351656e+02
3.061443e+03,1.342126e+02
3.073014e+03,1.229800e+02
3.084584e+03,1.391968e+02
3.096155e+03,1.234543e+02
3.107726e+03,1.264878e+02
3.119297e+03,1.570433e+02
3.130868e+03,1.600158e+02
3.142438e+03,1.490741e+02
3.154009e+03,1.359279e+02
3.165580e+03,1.336756e+02
3.177151e+03,1.332365e+02
3.188722e+03,1.402425e+02
3.200292e+03,1.737184e+02
3.211863e+03,0.000000e+00
3.223434e+03,0.000000e+00
3.235005e+03,0.000000e+00
3.246576e+03,0.000000e+00
3.258146e+03,0.000000e+00
3.269717e+03,0.000000e+00
3.281288e+03,0.000000e+00
3.292859e+03,0.000000e+00
3.304430e+03,0.000000e+00
3.316000e+03,0.000000e+00
3.327571e+03,0.000000e+00
3.339142e+03,0.000000e+00
3.350713e+03,0.000000e+00
3.362284e+03,0.000000e+00
3.373854e+03,0.000000e+00
3.385425e+03,0.000000e+00
3.396996e+03,0.000000e+00
3.408567e+03,0.000000e+00
3.420138e+03,0.000000e+00
3.431708e+03,0.000000e+00
3.443279e+03,0.000000e+00
3.454850e+03,0.000000e+00
3.466421e+03,0.000000e+00
3.477992e+03,0.000000e+00
3.489563e+03,0.000000e+00
3.500169e+03,0.000000e+00