File: RAMAN_data/14032024_r1/red fibre1.CSV
9.931763e+01,0.000000e+00
1.108884e+02,0.000000e+00
1.224592e+02,0.000000e+00
1.340300e+02,0.000000e+00
1.456008e+02,0.000000e+00
1.571716e+02,0.000000e+00
1.687424e+02,0.000000e+00
1.803132e+02,0.000000e+00
1.918840e+02,0.000000e+00
2.034548e+02,4.066113e+02
2.150256e+02,4.057306e+02
2.265964e+02,4.020027e+02
2.381673e+02,4.096067e+02
2.497381e+02,4.120087e+02
2.613088e+02,4.073782e+02
2.728796e+02,4.019444e+02
2.844504e+02,4.015215e+02
2.960212e+02,4.032792e+02
3.075920e+02,4.074195e+02
3.191628e+02,4.076963e+02
3.307336e+02,4.199614e+02
3.423044e+02,4.069817e+02
3.538752e+02,4.138603e+02
3.654461e+02,4.104955e+02
3.770169e+02,4.356385e+02
3.885877e+02,4.068814e+02
4.001585e+02,4.002432e+02
4.117293e+02,3.991127e+02
4.233001e+02,4.078765e+02
4.348709e+02,4.171899e+02
4.464417e+02,4.022659e+02
4.580125e+02,4.132180e+02
4.695833e+02,3.928897e+02
4.811541e+02,3.912434e+02
4.927249e+02,4.002438e+02
5.042957e+02,3.854283e+02
5.158665e+02,4.010345e+02
5.274373e+02,3.859501e+02
5.390081e+02,3.794727e+02
5.505789e+02,3.745832e+02
5.621497e+02,3.768001e+02
5.737205e+02,3.739328e+02
5.852913e+02,3.736597e+02
5.968621e+02,3.738592e+02
6.084329e+02,3.695244e+02
6.200037e+02,3.758185e+02
6.315745e+02,3.663043e+02
6.431453e+02,3.688636e+02
6.547161e+02,3.669085e+02
6.662869e+02,3.646432e+02
6.778577e+02,3.610688e+02
6.894285e+02,3.567397e+02
7.009993e+02,3.585738e+02
7.125701e+02,3.602543e+02
7.241409e+02,3.593909e+02
7.357117e+02,3.544352e+02
7.472825e+02,3.491639e+02
7.588533e+02,3.471417e+02
7.704241e+02,3.447194e+02
7.819949e+02,3.469268e+02
7.935657e+02,3.437210e+02
8.051365e+02,3.438444e+02
8.167073e+02,3.373496e+02
8.282781e+02,3.370146e+02
8.398489e+02,3.405015e+02
8.514197e+02,3.333216e+02
8.629905e+02,3.368419e+02
8.745613e+02,3.391454e+02
8.861321e+02,3.372676e+02
8.977029e+02,3.370380e+02
9.092737e+02,3.300661e+02
9.208445e+02,3.300710e+02
9.324153e+02,3.262212e+02
9.439861e+02,3.218932e+02
9.555569e+02,3.257735e+02
9.671277e+02,3.271575e+02
9.786985e+02,3.183619e+02
9.902693e+02,3.249474e+02
1.001840e+03,3.191984e+02
1.013411e+03,3.198046e+02
1.024982e+03,3.147881e+02
1.036552e+03,3.220941e+02
1.048123e+03,3.222404e+02
1.059694e+03,3.207615e+02
1.071265e+03,3.245923e+02
1.082836e+03,3.337387e+02
1.094406e+03,3.763915e+02
1.105977e+03,3.389974e+02
1.117548e+03,3.479309e+02
1.129119e+03,3.279611e+02
1.140690e+03,3.176445e+02
1.152261e+03,3.206919e+02
1.163831e+03,3.085883e+02
1.175402e+03,3.046120e+02
1.186973e+03,2.946101e+02
1.198544e+03,3.006420e+02
1.210115e+03,2.979987e+02
1.221685e+03,2.916142e+02
1.233256e+03,3.037443e+02
1.244827e+03,2.969560e+02
1.256398e+03,3.026994e+02
1.267969e+03,2.961247e+02
1.279539e+03,2.986421e+02
1.291110e+03,3.066035e+02
1.302681e+03,3.003913e+02
1.314252e+03,3.001725e+02
1.325823e+03,3.062879e+02
1.337393e+03,3.118046e+02
1.348964e+03,3.038987e+02
1.360535e+03,3.050825e+02
1.372106e+03,3.187021e+02
1.383677e+03,3.120739e+02
1.395247e+03,2.966303e+02
1.406818e+03,2.968990e+02
1.418389e+03,2.988615e+02
1.429960e+03,2.862094e+02
1.441531e+03,2.840835e+02
1.453101e+03,2.840558e+02
1.464672e+03,2.880698e+02
1.476243e+03,2.861913e+02
1.487814e+03,2.786539e+02
1.499385e+03,2.773166e+02
1.510955e+03,2.729832e+02
1.522526e+03,2.748175e+02
1.534097e+03,2.708909e+02
1.545668e+03,2.686738e+02
1.557239e+03,2.678627e+02
1.568809e+03,2.708828e+02
1.580380e+03,2.678993e+02
1.591951e+03,2.663274e+02
1.603522e+03,2.658235e+02
1.615093e+03,2.648706e+02
1.626663e+03,2.600116e+02
1.638234e+03,2.638032e+02
1.649805e+03,2.560511e+02
1.661376e+03,2.554974e+02
1.672947e+03,2.540815e+02
1.684517e+03,2.576130e+02
1.696088e+03,2.489351e+02
1.707659e+03,2.561405e+02
1.719230e+03,2.475066e+02
1.730801e+03,2.390774e+02
1.742371e+03,2.420743e+02
1.753942e+03,2.415322e+02
1.765513e+03,2.421978e+02
1.777084e+03,2.373073e+02
1.788655e+03,2.369353e+02
1.800225e+03,2.399141e+02
1.811796e+03,2.383684e+02
1.823367e+03,2.279970e+02
1.834938e+03,2.318924e+02
1.846509e+03,2.333634e+02
1.858079e+03,2.265116e+02
1.869650e+03,2.304996e+02
1.881221e+03,2.222937e+02
1.892792e+03,2.204936e+02
1.904363e+03,2.224811e+02
1.915933e+03,2.201084e+02
1.927504e+03,2.147332e+02
1.939075e+03,2.164448e+02
1.950646e+03,2.142136e+02
1.962217e+03,2.122708e+02
1.973787e+03,2.136642e+02
1.985358e+03,2.109509e+02
1.996929e+03,2.049673e+02
2.008500e+03,2.099294e+02
2.020071e+03,2.022086e+02
2.031641e+03,2.052548e+02
2.043212e+03,1.998604e+02
2.054783e+03,1.940352e+02
2.066354e+03,2.022812e+02
2.077925e+03,1.940814e+02
2.089496e+03,1.965768e+02
2.101066e+03,1.834511e+02
2.112637e+03,1.859616e+02
2.124208e+03,1.854757e+02
2.135779e+03,1.854169e+02
2.147350e+03,1.793608e+02
2.158920e+03,1.813355e+02
2.170491e+03,1.754455e+02
2.182062e+03,1.731628e+02
2.193633e+03,1.745778e+02
2.205204e+03,1.709038e+02
2.216774e+03,1.714219e+02
2.228345e+03,1.714380e+02
2.239916e+03,1.664621e+02
2.251487e+03,1.709417e+02
2.263058e+03,1.675208e+02
2.274628e+03,1.684273e+02
2.286199e+03,1.646166e+02
2.297770e+03,1.592094e+02
2.309341e+03,1.636273e+02
2.320912e+03,1.599658e+02
2.332482e+03,1.574727e+02
2.344053e+03,1.605948e+02
2.355624e+03,1.542512e+02
2.367195e+03,1.511485e+02
2.378766e+03,1.542033e+02
2.390336e+03,1.511275e+02
2.401907e+03,1.554841e+02
2.413478e+03,1.412134e+02
2.425049e+03,1.471969e+02
2.436620e+03,1.444208e+02
2.448190e+03,1.475022e+02
2.459761e+03,1.454442e+02
2.471332e+03,1.458577e+02
2.482903e+03,1.453474e+02
2.494474e+03,1.400561e+02
2.506044e+03,1.393857e+02
2.517615e+03,1.435491e+02
2.529186e+03,1.400569e+02
2.540757e+03,1.396473e+02
2.552328e+03,1.547814e+02
2.563898e+03,1.423658e+02
2.575469e+03,1.443137e+02
2.587040e+03,1.434699e+02
2.598611e+03,1.364334e+02
2.610182e+03,1.302807e+02
2.621752e+03,1.292462e+02
2.633323e+03,1.286738e+02
2.644894e+03,1.347375e+02
2.656465e+03,1.398487e+02
2.668036e+03,1.355132e+02
2.679606e+03,1.390845e+02
2.691177e+03,1.325921e+02
2.702748e+03,1.309322e+02
2.714319e+03,1.345950e+02
2.725890e+03,1.313863e+02
2.737460e+03,1.298611e+02
2.749031e+03,1.391099e+02
2.760602e+03,1.386602e+02
2.772173e+03,1.271019e+02
2.783744e+03,1.303486e+02
2.795314e+03,1.233009e+02
2.806885e+03,1.268026e+02
2.818456e+03,1.282460e+02
2.830027e+03,1.315461e+02
2.841598e+03,1.375133e+02
2.853168e+03,1.390893e+02
2.864739e+03,1.514153e+02
2.876310e+03,1.621537e+02
2.887881e+03,1.767277e+02
2.899452e+03,1.842959e+02
2.911022e+03,1.739619e+02
2.922593e+03,1.559810e+02
2.934164e+03,1.664974e+02
2.945735e+03,1.553451e+02
2.957306e+03,1.804306e+02
2.968876e+03,1.273464e+02
2.980447e+03,1.240494e+02
2.992018e+03,1.314671e+02
3.003589e+03,1.180460e+02
3.015160e+03,1.196040e+02
3.026730e+03,1.133110e+02
3.038301e+03,1.222254e+02
3.049872e+03,1.252964e+02
3.061443e+03,1.285487e+02
3.073014e+03,1.127117e+02
3.084584e+03,1.135392e+02
3.096155e+03,1.467568e+02
3.107726e+03,1.364757e+02
3.119297e+03,1.342108e+02
3.130868e+03,1.249242e+02
3.142438e+03,1.385213e+02
3.154009e+03,1.404054e+02
3.165580e+03,1.279657e+02
3.177151e+03,1.158587e+02
3.188722e+03,1.206369e+02
3.200292e+03,1.525664e+02
3.211863e+03,0.000000e+00
3.223434e+03,0.000000e+00
3.235005e+03,0.000000e+00
3.246576e+03,0.000000e+00
3.258146e+03,0.000000e+00
3.269717e+03,0.000000e+00
3.281288e+03,0.000000e+00
3.292859e+03,0.000000e+00
3.304430e+03,0.000000e+00
3.316000e+03,0.000000e+00
3.327571e+03,0.000000e+00
3.339142e+03,0.000000e+00
3.350713e+03,0.000000e+00
3.362284e+03,0.000000e+00
3.373854e+03,0.000000e+00
3.385425e+03,0.000000e+00
3.396996e+03,0.000000e+00
3.408567e+03,0.000000e+00
3.420138e+03,0.000000e+00
3.431708e+03,0.000000e+00
3.443279e+03,0.000000e+00
3.454850e+03,0.000000e+00
3.466421e+03,0.000000e+00
3.477992e+03,0.000000e+00
3.489563e+03,0.000000e+00
3.500169e+03,0.000000e+00