File: RAMAN_data/13042023_r1/.CSV
9.931763e+01,0.000000e+00
1.108884e+02,0.000000e+00
1.224592e+02,0.000000e+00
1.340300e+02,0.000000e+00
1.456008e+02,0.000000e+00
1.571716e+02,0.000000e+00
1.687424e+02,0.000000e+00
1.803132e+02,0.000000e+00
1.918840e+02,0.000000e+00
2.034548e+02,1.052034e+04
2.150256e+02,1.057994e+04
2.265964e+02,1.068749e+04
2.381673e+02,1.083688e+04
2.497381e+02,1.092293e+04
2.613088e+02,1.102010e+04
2.728796e+02,1.114520e+04
2.844504e+02,1.128402e+04
2.960212e+02,1.139113e+04
3.075920e+02,1.148884e+04
3.191628e+02,1.160888e+04
3.307336e+02,1.175929e+04
3.423044e+02,1.189110e+04
3.538752e+02,1.203903e+04
3.654461e+02,1.215143e+04
3.770169e+02,1.231209e+04
3.885877e+02,1.246715e+04
4.001585e+02,1.259571e+04
4.117293e+02,1.274472e+04
4.233001e+02,1.288676e+04
4.348709e+02,1.304558e+04
4.464417e+02,1.321787e+04
4.580125e+02,1.333318e+04
4.695833e+02,1.347626e+04
4.811541e+02,1.357489e+04
4.927249e+02,1.363123e+04
5.042957e+02,1.367690e+04
5.158665e+02,1.374516e+04
5.274373e+02,1.377753e+04
5.390081e+02,1.371499e+04
5.505789e+02,1.370265e+04
5.621497e+02,1.367788e+04
5.737205e+02,1.359759e+04
5.852913e+02,1.356677e+04
5.968621e+02,1.357223e+04
6.084329e+02,1.352157e+04
6.200037e+02,1.348818e+04
6.315745e+02,1.340348e+04
6.431453e+02,1.333907e+04
6.547161e+02,1.324725e+04
6.662869e+02,1.313353e+04
6.778577e+02,1.297320e+04
6.894285e+02,1.286555e+04
7.009993e+02,1.280197e+04
7.125701e+02,1.268865e+04
7.241409e+02,1.254695e+04
7.357117e+02,1.247904e+04
7.472825e+02,1.245544e+04
7.588533e+02,1.229360e+04
7.704241e+02,1.215130e+04
7.819949e+02,1.205924e+04
7.935657e+02,1.198909e+04
8.051365e+02,1.189186e+04
8.167073e+02,1.178638e+04
8.282781e+02,1.168845e+04
8.398489e+02,1.164863e+04
8.514197e+02,1.149603e+04
8.629905e+02,1.136701e+04
8.745613e+02,1.133990e+04
8.861321e+02,1.124571e+04
8.977029e+02,1.113680e+04
9.092737e+02,1.105361e+04
9.208445e+02,1.095581e+04
9.324153e+02,1.084630e+04
9.439861e+02,1.075303e+04
9.555569e+02,1.065011e+04
9.671277e+02,1.058277e+04
9.786985e+02,1.054374e+04
9.902693e+02,1.038218e+04
1.001840e+03,1.030288e+04
1.013411e+03,1.020738e+04
1.024982e+03,1.016577e+04
1.036552e+03,1.006625e+04
1.048123e+03,9.988808e+03
1.059694e+03,9.894491e+03
1.071265e+03,9.859726e+03
1.082836e+03,9.749172e+03
1.094406e+03,9.649682e+03
1.105977e+03,9.576965e+03
1.117548e+03,9.518432e+03
1.129119e+03,9.393140e+03
1.140690e+03,9.328548e+03
1.152261e+03,9.297891e+03
1.163831e+03,9.202776e+03
1.175402e+03,9.092519e+03
1.186973e+03,9.040502e+03
1.198544e+03,8.977056e+03
1.210115e+03,8.890069e+03
1.221685e+03,8.782109e+03
1.233256e+03,8.710715e+03
1.244827e+03,8.674757e+03
1.256398e+03,8.601767e+03
1.267969e+03,8.496322e+03
1.279539e+03,8.446027e+03
1.291110e+03,8.370989e+03
1.302681e+03,8.288261e+03
1.314252e+03,8.230479e+03
1.325823e+03,8.173843e+03
1.337393e+03,8.152008e+03
1.348964e+03,8.041474e+03
1.360535e+03,7.920706e+03
1.372106e+03,7.879005e+03
1.383677e+03,7.800286e+03
1.395247e+03,7.743276e+03
1.406818e+03,7.687459e+03
1.418389e+03,7.590303e+03
1.429960e+03,7.538889e+03
1.441531e+03,7.474907e+03
1.453101e+03,7.405702e+03
1.464672e+03,7.359744e+03
1.476243e+03,7.258031e+03
1.487814e+03,7.223724e+03
1.499385e+03,7.132421e+03
1.510955e+03,7.064174e+03
1.522526e+03,6.999335e+03
1.534097e+03,7.009992e+03
1.545668e+03,6.922522e+03
1.557239e+03,6.816737e+03
1.568809e+03,6.737000e+03
1.580380e+03,6.689850e+03
1.591951e+03,6.607420e+03
1.603522e+03,6.537199e+03
1.615093e+03,6.487514e+03
1.626663e+03,6.421776e+03
1.638234e+03,6.361898e+03
1.649805e+03,6.260747e+03
1.661376e+03,6.201726e+03
1.672947e+03,6.157921e+03
1.684517e+03,6.086246e+03
1.696088e+03,6.018342e+03
1.707659e+03,5.960261e+03
1.719230e+03,5.908979e+03
1.730801e+03,5.850365e+03
1.742371e+03,5.781148e+03
1.753942e+03,5.709151e+03
1.765513e+03,5.651067e+03
1.777084e+03,5.587979e+03
1.788655e+03,5.511444e+03
1.800225e+03,5.466553e+03
1.811796e+03,5.390198e+03
1.823367e+03,5.343536e+03
1.834938e+03,5.306365e+03
1.846509e+03,5.230190e+03
1.858079e+03,5.159164e+03
1.869650e+03,5.107091e+03
1.881221e+03,5.031083e+03
1.892792e+03,4.973703e+03
1.904363e+03,4.937689e+03
1.915933e+03,4.859911e+03
1.927504e+03,4.797102e+03
1.939075e+03,4.776618e+03
1.950646e+03,4.699503e+03
1.962217e+03,4.635077e+03
1.973787e+03,4.566493e+03
1.985358e+03,4.532420e+03
1.996929e+03,4.477734e+03
2.008500e+03,4.391359e+03
2.020071e+03,4.374134e+03
2.031641e+03,4.308004e+03
2.043212e+03,4.239315e+03
2.054783e+03,4.195996e+03
2.066354e+03,4.146575e+03
2.077925e+03,4.074185e+03
2.089496e+03,4.029738e+03
2.101066e+03,3.981330e+03
2.112637e+03,3.919198e+03
2.124208e+03,3.894719e+03
2.135779e+03,3.838594e+03
2.147350e+03,3.744630e+03
2.158920e+03,3.704820e+03
2.170491e+03,3.692511e+03
2.182062e+03,3.607860e+03
2.193633e+03,3.558530e+03
2.205204e+03,3.541489e+03
2.216774e+03,3.496572e+03
2.228345e+03,3.434376e+03
2.239916e+03,3.388185e+03
2.251487e+03,3.323548e+03
2.263058e+03,3.289553e+03
2.274628e+03,3.261036e+03
2.286199e+03,3.166811e+03
2.297770e+03,3.175141e+03
2.309341e+03,3.106689e+03
2.320912e+03,3.099134e+03
2.332482e+03,3.054781e+03
2.344053e+03,2.995836e+03
2.355624e+03,2.964255e+03
2.367195e+03,2.910438e+03
2.378766e+03,2.862701e+03
2.390336e+03,2.838581e+03
2.401907e+03,2.792190e+03
2.413478e+03,2.753375e+03
2.425049e+03,2.734349e+03
2.436620e+03,2.675344e+03
2.448190e+03,2.664635e+03
2.459761e+03,2.615801e+03
2.471332e+03,2.601332e+03
2.482903e+03,2.572724e+03
2.494474e+03,2.539307e+03
2.506044e+03,2.482762e+03
2.517615e+03,2.486135e+03
2.529186e+03,2.424551e+03
2.540757e+03,2.426594e+03
2.552328e+03,2.385851e+03
2.563898e+03,2.355683e+03
2.575469e+03,2.353660e+03
2.587040e+03,2.334269e+03
2.598611e+03,2.295079e+03
2.610182e+03,2.270286e+03
2.621752e+03,2.231996e+03
2.633323e+03,2.200701e+03
2.644894e+03,2.213029e+03
2.656465e+03,2.173492e+03
2.668036e+03,2.174258e+03
2.679606e+03,2.132951e+03
2.691177e+03,2.106258e+03
2.702748e+03,2.087348e+03
2.714319e+03,2.072653e+03
2.725890e+03,2.066356e+03
2.737460e+03,2.024313e+03
2.749031e+03,2.009650e+03
2.760602e+03,1.973127e+03
2.772173e+03,1.984090e+03
2.783744e+03,1.981158e+03
2.795314e+03,1.920442e+03
2.806885e+03,1.874724e+03
2.818456e+03,1.917199e+03
2.830027e+03,1.875014e+03
2.841598e+03,1.879623e+03
2.853168e+03,1.878653e+03
2.864739e+03,1.872353e+03
2.876310e+03,1.824833e+03
2.887881e+03,1.874620e+03
2.899452e+03,1.833343e+03
2.911022e+03,1.789494e+03
2.922593e+03,1.809471e+03
2.934164e+03,1.787193e+03
2.945735e+03,1.768914e+03
2.957306e+03,1.751889e+03
2.968876e+03,1.754813e+03
2.980447e+03,1.729204e+03
2.992018e+03,1.698201e+03
3.003589e+03,1.695443e+03
3.015160e+03,1.730402e+03
3.026730e+03,1.721139e+03
3.038301e+03,1.722201e+03
3.049872e+03,1.721322e+03
3.061443e+03,1.727063e+03
3.073014e+03,1.754730e+03
3.084584e+03,1.680328e+03
3.096155e+03,1.726350e+03
3.107726e+03,1.675312e+03
3.119297e+03,1.692805e+03
3.130868e+03,1.751195e+03
3.142438e+03,1.781669e+03
3.154009e+03,1.772027e+03
3.165580e+03,1.760763e+03
3.177151e+03,1.795391e+03
3.188722e+03,1.793936e+03
3.200292e+03,1.846275e+03
3.211863e+03,0.000000e+00
3.223434e+03,0.000000e+00
3.235005e+03,0.000000e+00
3.246576e+03,0.000000e+00
3.258146e+03,0.000000e+00
3.269717e+03,0.000000e+00
3.281288e+03,0.000000e+00
3.292859e+03,0.000000e+00
3.304430e+03,0.000000e+00
3.316000e+03,0.000000e+00
3.327571e+03,0.000000e+00
3.339142e+03,0.000000e+00
3.350713e+03,0.000000e+00
3.362284e+03,0.000000e+00
3.373854e+03,0.000000e+00
3.385425e+03,0.000000e+00
3.396996e+03,0.000000e+00
3.408567e+03,0.000000e+00
3.420138e+03,0.000000e+00
3.431708e+03,0.000000e+00
3.443279e+03,0.000000e+00
3.454850e+03,0.000000e+00
3.466421e+03,0.000000e+00
3.477992e+03,0.000000e+00
3.489563e+03,0.000000e+00
3.500169e+03,0.000000e+00