File: RAMAN_data/13042023_r1/black fibre2.CSV
9.931763e+01,0.000000e+00
1.108884e+02,0.000000e+00
1.224592e+02,0.000000e+00
1.340300e+02,0.000000e+00
1.456008e+02,0.000000e+00
1.571716e+02,0.000000e+00
1.687424e+02,0.000000e+00
1.803132e+02,0.000000e+00
1.918840e+02,0.000000e+00
2.034548e+02,9.825636e+03
2.150256e+02,9.850963e+03
2.265964e+02,9.839752e+03
2.381673e+02,9.914233e+03
2.497381e+02,9.898468e+03
2.613088e+02,9.894536e+03
2.728796e+02,9.921704e+03
2.844504e+02,9.967042e+03
2.960212e+02,9.948072e+03
3.075920e+02,9.946447e+03
3.191628e+02,9.889957e+03
3.307336e+02,9.858981e+03
3.423044e+02,9.798281e+03
3.538752e+02,9.764194e+03
3.654461e+02,9.688510e+03
3.770169e+02,9.677248e+03
3.885877e+02,9.613126e+03
4.001585e+02,9.537928e+03
4.117293e+02,9.513288e+03
4.233001e+02,9.438279e+03
4.348709e+02,9.428009e+03
4.464417e+02,9.363607e+03
4.580125e+02,9.317877e+03
4.695833e+02,9.232097e+03
4.811541e+02,9.230123e+03
4.927249e+02,9.165349e+03
5.042957e+02,9.114884e+03
5.158665e+02,9.105423e+03
5.274373e+02,9.059214e+03
5.390081e+02,8.981073e+03
5.505789e+02,8.947803e+03
5.621497e+02,8.910826e+03
5.737205e+02,8.860312e+03
5.852913e+02,8.788177e+03
5.968621e+02,8.785784e+03
6.084329e+02,8.721497e+03
6.200037e+02,8.674747e+03
6.315745e+02,8.609267e+03
6.431453e+02,8.602707e+03
6.547161e+02,8.558624e+03
6.662869e+02,8.509104e+03
6.778577e+02,8.439526e+03
6.894285e+02,8.396575e+03
7.009993e+02,8.375553e+03
7.125701e+02,8.346559e+03
7.241409e+02,8.293263e+03
7.357117e+02,8.248683e+03
7.472825e+02,8.225760e+03
7.588533e+02,8.188132e+03
7.704241e+02,8.100686e+03
7.819949e+02,8.079159e+03
7.935657e+02,8.062053e+03
8.051365e+02,7.999323e+03
8.167073e+02,7.958119e+03
8.282781e+02,7.939128e+03
8.398489e+02,7.918481e+03
8.514197e+02,7.838634e+03
8.629905e+02,7.800227e+03
8.745613e+02,7.776954e+03
8.861321e+02,7.743519e+03
8.977029e+02,7.697359e+03
9.092737e+02,7.634744e+03
9.208445e+02,7.580611e+03
9.324153e+02,7.574328e+03
9.439861e+02,7.499333e+03
9.555569e+02,7.450868e+03
9.671277e+02,7.447037e+03
9.786985e+02,7.404003e+03
9.902693e+02,7.346360e+03
1.001840e+03,7.282950e+03
1.013411e+03,7.259952e+03
1.024982e+03,7.229197e+03
1.036552e+03,7.201044e+03
1.048123e+03,7.149736e+03
1.059694e+03,7.086265e+03
1.071265e+03,7.075574e+03
1.082836e+03,7.043902e+03
1.094406e+03,6.985743e+03
1.105977e+03,6.968530e+03
1.117548e+03,6.919096e+03
1.129119e+03,6.881241e+03
1.140690e+03,6.846196e+03
1.152261e+03,6.806234e+03
1.163831e+03,6.781672e+03
1.175402e+03,6.717116e+03
1.186973e+03,6.689499e+03
1.198544e+03,6.684009e+03
1.210115e+03,6.626226e+03
1.221685e+03,6.563262e+03
1.233256e+03,6.545830e+03
1.244827e+03,6.523894e+03
1.256398e+03,6.488268e+03
1.267969e+03,6.427649e+03
1.279539e+03,6.456794e+03
1.291110e+03,6.398313e+03
1.302681e+03,6.352972e+03
1.314252e+03,6.370165e+03
1.325823e+03,6.325860e+03
1.337393e+03,6.314112e+03
1.348964e+03,6.239287e+03
1.360535e+03,6.201240e+03
1.372106e+03,6.125433e+03
1.383677e+03,6.097780e+03
1.395247e+03,6.010062e+03
1.406818e+03,5.953177e+03
1.418389e+03,5.945033e+03
1.429960e+03,5.904702e+03
1.441531e+03,5.871521e+03
1.453101e+03,5.826870e+03
1.464672e+03,5.785988e+03
1.476243e+03,5.761981e+03
1.487814e+03,5.708641e+03
1.499385e+03,5.690035e+03
1.510955e+03,5.646630e+03
1.522526e+03,5.611045e+03
1.534097e+03,5.557345e+03
1.545668e+03,5.525452e+03
1.557239e+03,5.506699e+03
1.568809e+03,5.468807e+03
1.580380e+03,5.428492e+03
1.591951e+03,5.416197e+03
1.603522e+03,5.351842e+03
1.615093e+03,5.323065e+03
1.626663e+03,5.279186e+03
1.638234e+03,5.233494e+03
1.649805e+03,5.190099e+03
1.661376e+03,5.158467e+03
1.672947e+03,5.093144e+03
1.684517e+03,5.061019e+03
1.696088e+03,5.047794e+03
1.707659e+03,5.006741e+03
1.719230e+03,4.945991e+03
1.730801e+03,4.908060e+03
1.742371e+03,4.909677e+03
1.753942e+03,4.858474e+03
1.765513e+03,4.798345e+03
1.777084e+03,4.770735e+03
1.788655e+03,4.741717e+03
1.800225e+03,4.727943e+03
1.811796e+03,4.643682e+03
1.823367e+03,4.621284e+03
1.834938e+03,4.592545e+03
1.846509e+03,4.534712e+03
1.858079e+03,4.507458e+03
1.869650e+03,4.486248e+03
1.881221e+03,4.439021e+03
1.892792e+03,4.425862e+03
1.904363e+03,4.399524e+03
1.915933e+03,4.343354e+03
1.927504e+03,4.289493e+03
1.939075e+03,4.267030e+03
1.950646e+03,4.217149e+03
1.962217e+03,4.195690e+03
1.973787e+03,4.161996e+03
1.985358e+03,4.137293e+03
1.996929e+03,4.093491e+03
2.008500e+03,4.053726e+03
2.020071e+03,4.039258e+03
2.031641e+03,3.967767e+03
2.043212e+03,3.935874e+03
2.054783e+03,3.886291e+03
2.066354e+03,3.845088e+03
2.077925e+03,3.858616e+03
2.089496e+03,3.820316e+03
2.101066e+03,3.751089e+03
2.112637e+03,3.710537e+03
2.124208e+03,3.696281e+03
2.135779e+03,3.648768e+03
2.147350e+03,3.609926e+03
2.158920e+03,3.580667e+03
2.170491e+03,3.561281e+03
2.182062e+03,3.498607e+03
2.193633e+03,3.480871e+03
2.205204e+03,3.460391e+03
2.216774e+03,3.402761e+03
2.228345e+03,3.358641e+03
2.239916e+03,3.296312e+03
2.251487e+03,3.312254e+03
2.263058e+03,3.283366e+03
2.274628e+03,3.219507e+03
2.286199e+03,3.178070e+03
2.297770e+03,3.164589e+03
2.309341e+03,3.117809e+03
2.320912e+03,3.106253e+03
2.332482e+03,3.062575e+03
2.344053e+03,3.046764e+03
2.355624e+03,2.994814e+03
2.367195e+03,2.956156e+03
2.378766e+03,2.944709e+03
2.390336e+03,2.928007e+03
2.401907e+03,2.905445e+03
2.413478e+03,2.844196e+03
2.425049e+03,2.847408e+03
2.436620e+03,2.816302e+03
2.448190e+03,2.775200e+03
2.459761e+03,2.761340e+03
2.471332e+03,2.733213e+03
2.482903e+03,2.691692e+03
2.494474e+03,2.659088e+03
2.506044e+03,2.669583e+03
2.517615e+03,2.628034e+03
2.529186e+03,2.605611e+03
2.540757e+03,2.594018e+03
2.552328e+03,2.553212e+03
2.563898e+03,2.537374e+03
2.575469e+03,2.532846e+03
2.587040e+03,2.465315e+03
2.598611e+03,2.472919e+03
2.610182e+03,2.451262e+03
2.621752e+03,2.430984e+03
2.633323e+03,2.377440e+03
2.644894e+03,2.387360e+03
2.656465e+03,2.389069e+03
2.668036e+03,2.348324e+03
2.679606e+03,2.331404e+03
2.691177e+03,2.311112e+03
2.702748e+03,2.308727e+03
2.714319e+03,2.259284e+03
2.725890e+03,2.228026e+03
2.737460e+03,2.229427e+03
2.749031e+03,2.208886e+03
2.760602e+03,2.196415e+03
2.772173e+03,2.189369e+03
2.783744e+03,2.147326e+03
2.795314e+03,2.139058e+03
2.806885e+03,2.158991e+03
2.818456e+03,2.128686e+03
2.830027e+03,2.081561e+03
2.841598e+03,2.057162e+03
2.853168e+03,2.089377e+03
2.864739e+03,2.054196e+03
2.876310e+03,2.044131e+03
2.887881e+03,2.066675e+03
2.899452e+03,2.048264e+03
2.911022e+03,2.023192e+03
2.922593e+03,1.980306e+03
2.934164e+03,1.992335e+03
2.945735e+03,2.008915e+03
2.957306e+03,1.994119e+03
2.968876e+03,1.973948e+03
2.980447e+03,1.942048e+03
2.992018e+03,1.903087e+03
3.003589e+03,1.905400e+03
3.015160e+03,1.919561e+03
3.026730e+03,1.873532e+03
3.038301e+03,1.860374e+03
3.049872e+03,1.871532e+03
3.061443e+03,1.887743e+03
3.073014e+03,1.844593e+03
3.084584e+03,1.846709e+03
3.096155e+03,1.864362e+03
3.107726e+03,1.764729e+03
3.119297e+03,1.825384e+03
3.130868e+03,1.844868e+03
3.142438e+03,1.847053e+03
3.154009e+03,1.822863e+03
3.165580e+03,1.849690e+03
3.177151e+03,1.868685e+03
3.188722e+03,1.806611e+03
3.200292e+03,1.828874e+03
3.211863e+03,0.000000e+00
3.223434e+03,0.000000e+00
3.235005e+03,0.000000e+00
3.246576e+03,0.000000e+00
3.258146e+03,0.000000e+00
3.269717e+03,0.000000e+00
3.281288e+03,0.000000e+00
3.292859e+03,0.000000e+00
3.304430e+03,0.000000e+00
3.316000e+03,0.000000e+00
3.327571e+03,0.000000e+00
3.339142e+03,0.000000e+00
3.350713e+03,0.000000e+00
3.362284e+03,0.000000e+00
3.373854e+03,0.000000e+00
3.385425e+03,0.000000e+00
3.396996e+03,0.000000e+00
3.408567e+03,0.000000e+00
3.420138e+03,0.000000e+00
3.431708e+03,0.000000e+00
3.443279e+03,0.000000e+00
3.454850e+03,0.000000e+00
3.466421e+03,0.000000e+00
3.477992e+03,0.000000e+00
3.489563e+03,0.000000e+00
3.500169e+03,0.000000e+00