File: RAMAN_data/13042023_r1/black fibre6.CSV
9.931763e+01,0.000000e+00
1.108884e+02,0.000000e+00
1.224592e+02,0.000000e+00
1.340300e+02,0.000000e+00
1.456008e+02,0.000000e+00
1.571716e+02,0.000000e+00
1.687424e+02,0.000000e+00
1.803132e+02,0.000000e+00
1.918840e+02,0.000000e+00
2.034548e+02,1.052034e+04
2.150256e+02,1.057994e+04
2.265964e+02,1.068749e+04
2.381673e+02,1.083688e+04
2.497381e+02,1.092293e+04
2.613088e+02,1.102010e+04
2.728796e+02,1.114520e+04
2.844504e+02,1.128402e+04
2.960212e+02,1.139113e+04
3.075920e+02,1.148884e+04
3.191628e+02,1.160888e+04
3.307336e+02,1.175929e+04
3.423044e+02,1.189110e+04
3.538752e+02,1.203903e+04
3.654461e+02,1.215143e+04
3.770169e+02,1.231209e+04
3.885877e+02,1.246008e+04
4.001585e+02,1.251772e+04
4.117293e+02,1.258389e+04
4.233001e+02,1.267219e+04
4.348709e+02,1.273412e+04
4.464417e+02,1.277720e+04
4.580125e+02,1.278514e+04
4.695833e+02,1.281448e+04
4.811541e+02,1.281690e+04
4.927249e+02,1.284313e+04
5.042957e+02,1.283590e+04
5.158665e+02,1.287330e+04
5.274373e+02,1.284523e+04
5.390081e+02,1.282765e+04
5.505789e+02,1.285014e+04
5.621497e+02,1.284630e+04
5.737205e+02,1.272728e+04
5.852913e+02,1.265722e+04
5.968621e+02,1.264778e+04
6.084329e+02,1.258927e+04
6.200037e+02,1.250496e+04
6.315745e+02,1.245038e+04
6.431453e+02,1.236391e+04
6.547161e+02,1.234923e+04
6.662869e+02,1.223382e+04
6.778577e+02,1.215541e+04
6.894285e+02,1.211778e+04
7.009993e+02,1.211615e+04
7.125701e+02,1.202221e+04
7.241409e+02,1.196831e+04
7.357117e+02,1.194399e+04
7.472825e+02,1.193780e+04
7.588533e+02,1.183550e+04
7.704241e+02,1.179088e+04
7.819949e+02,1.173011e+04
7.935657e+02,1.169492e+04
8.051365e+02,1.163270e+04
8.167073e+02,1.157619e+04
8.282781e+02,1.152614e+04
8.398489e+02,1.147583e+04
8.514197e+02,1.142897e+04
8.629905e+02,1.138176e+04
8.745613e+02,1.129748e+04
8.861321e+02,1.128325e+04
8.977029e+02,1.122643e+04
9.092737e+02,1.117812e+04
9.208445e+02,1.110837e+04
9.324153e+02,1.109521e+04
9.439861e+02,1.102341e+04
9.555569e+02,1.097201e+04
9.671277e+02,1.091888e+04
9.786985e+02,1.089670e+04
9.902693e+02,1.087311e+04
1.001840e+03,1.079486e+04
1.013411e+03,1.073430e+04
1.024982e+03,1.070394e+04
1.036552e+03,1.064593e+04
1.048123e+03,1.062185e+04
1.059694e+03,1.057149e+04
1.071265e+03,1.056424e+04
1.082836e+03,1.056747e+04
1.094406e+03,1.049047e+04
1.105977e+03,1.045266e+04
1.117548e+03,1.041491e+04
1.129119e+03,1.036753e+04
1.140690e+03,1.031646e+04
1.152261e+03,1.036198e+04
1.163831e+03,1.030097e+04
1.175402e+03,1.019872e+04
1.186973e+03,1.016047e+04
1.198544e+03,1.016186e+04
1.210115e+03,1.014623e+04
1.221685e+03,1.005211e+04
1.233256e+03,1.004024e+04
1.244827e+03,1.001548e+04
1.256398e+03,9.990888e+03
1.267969e+03,9.909624e+03
1.279539e+03,9.897379e+03
1.291110e+03,9.872197e+03
1.302681e+03,9.858170e+03
1.314252e+03,9.776303e+03
1.325823e+03,9.760835e+03
1.337393e+03,9.739844e+03
1.348964e+03,9.687700e+03
1.360535e+03,9.610678e+03
1.372106e+03,9.544833e+03
1.383677e+03,9.493255e+03
1.395247e+03,9.447814e+03
1.406818e+03,9.375094e+03
1.418389e+03,9.352934e+03
1.429960e+03,9.309056e+03
1.441531e+03,9.262337e+03
1.453101e+03,9.177520e+03
1.464672e+03,9.134033e+03
1.476243e+03,9.119853e+03
1.487814e+03,9.039848e+03
1.499385e+03,8.992393e+03
1.510955e+03,8.955647e+03
1.522526e+03,8.920395e+03
1.534097e+03,8.882145e+03
1.545668e+03,8.811386e+03
1.557239e+03,8.802906e+03
1.568809e+03,8.805497e+03
1.580380e+03,8.794881e+03
1.591951e+03,8.704999e+03
1.603522e+03,8.655951e+03
1.615093e+03,8.598407e+03
1.626663e+03,8.538972e+03
1.638234e+03,8.439354e+03
1.649805e+03,8.397446e+03
1.661376e+03,8.321588e+03
1.672947e+03,8.251780e+03
1.684517e+03,8.223267e+03
1.696088e+03,8.199403e+03
1.707659e+03,8.134284e+03
1.719230e+03,8.074131e+03
1.730801e+03,8.000095e+03
1.742371e+03,7.986290e+03
1.753942e+03,7.926380e+03
1.765513e+03,7.886541e+03
1.777084e+03,7.839501e+03
1.788655e+03,7.783812e+03
1.800225e+03,7.748466e+03
1.811796e+03,7.685057e+03
1.823367e+03,7.632313e+03
1.834938e+03,7.607900e+03
1.846509e+03,7.571933e+03
1.858079e+03,7.485793e+03
1.869650e+03,7.426578e+03
1.881221e+03,7.374467e+03
1.892792e+03,7.356228e+03
1.904363e+03,7.330865e+03
1.915933e+03,7.270065e+03
1.927504e+03,7.233008e+03
1.939075e+03,7.129279e+03
1.950646e+03,7.091907e+03
1.962217e+03,7.035361e+03
1.973787e+03,6.978254e+03
1.985358e+03,6.944064e+03
1.996929e+03,6.854594e+03
2.008500e+03,6.826593e+03
2.020071e+03,6.792976e+03
2.031641e+03,6.749692e+03
2.043212e+03,6.690381e+03
2.054783e+03,6.616899e+03
2.066354e+03,6.603183e+03
2.077925e+03,6.521065e+03
2.089496e+03,6.507989e+03
2.101066e+03,6.392892e+03
2.112637e+03,6.350982e+03
2.124208e+03,6.354217e+03
2.135779e+03,6.285036e+03
2.147350e+03,6.168922e+03
2.158920e+03,6.158978e+03
2.170491e+03,6.178336e+03
2.182062e+03,6.008891e+03
2.193633e+03,5.985654e+03
2.205204e+03,5.966373e+03
2.216774e+03,5.939489e+03
2.228345e+03,5.834797e+03
2.239916e+03,5.761694e+03
2.251487e+03,5.737935e+03
2.263058e+03,5.686222e+03
2.274628e+03,5.642248e+03
2.286199e+03,5.572007e+03
2.297770e+03,5.570706e+03
2.309341e+03,5.486658e+03
2.320912e+03,5.433799e+03
2.332482e+03,5.379118e+03
2.344053e+03,5.409747e+03
2.355624e+03,5.284039e+03
2.367195e+03,5.248210e+03
2.378766e+03,5.202728e+03
2.390336e+03,5.170310e+03
2.401907e+03,5.113255e+03
2.413478e+03,5.078250e+03
2.425049e+03,5.029158e+03
2.436620e+03,4.977866e+03
2.448190e+03,4.948244e+03
2.459761e+03,4.883833e+03
2.471332e+03,4.880750e+03
2.482903e+03,4.833060e+03
2.494474e+03,4.738599e+03
2.506044e+03,4.743281e+03
2.517615e+03,4.693522e+03
2.529186e+03,4.665299e+03
2.540757e+03,4.625102e+03
2.552328e+03,4.580718e+03
2.563898e+03,4.580917e+03
2.575469e+03,4.555409e+03
2.587040e+03,4.505184e+03
2.598611e+03,4.444185e+03
2.610182e+03,4.435404e+03
2.621752e+03,4.361539e+03
2.633323e+03,4.324323e+03
2.644894e+03,4.322190e+03
2.656465e+03,4.289814e+03
2.668036e+03,4.320860e+03
2.679606e+03,4.245373e+03
2.691177e+03,4.230529e+03
2.702748e+03,4.211378e+03
2.714319e+03,4.112159e+03
2.725890e+03,4.109885e+03
2.737460e+03,4.080934e+03
2.749031e+03,4.093517e+03
2.760602e+03,4.061189e+03
2.772173e+03,4.022931e+03
2.783744e+03,3.978872e+03
2.795314e+03,3.999639e+03
2.806885e+03,3.957406e+03
2.818456e+03,3.924152e+03
2.830027e+03,3.920205e+03
2.841598e+03,3.899722e+03
2.853168e+03,3.865037e+03
2.864739e+03,3.841973e+03
2.876310e+03,3.848172e+03
2.887881e+03,3.840019e+03
2.899452e+03,3.811627e+03
2.911022e+03,3.768377e+03
2.922593e+03,3.748595e+03
2.934164e+03,3.748611e+03
2.945735e+03,3.691669e+03
2.957306e+03,3.681707e+03
2.968876e+03,3.680338e+03
2.980447e+03,3.609198e+03
2.992018e+03,3.610683e+03
3.003589e+03,3.535387e+03
3.015160e+03,3.592698e+03
3.026730e+03,3.574422e+03
3.038301e+03,3.563606e+03
3.049872e+03,3.530672e+03
3.061443e+03,3.559131e+03
3.073014e+03,3.431545e+03
3.084584e+03,3.509386e+03
3.096155e+03,3.460552e+03
3.107726e+03,3.378865e+03
3.119297e+03,3.404895e+03
3.130868e+03,3.477763e+03
3.142438e+03,3.454918e+03
3.154009e+03,3.400778e+03
3.165580e+03,3.403436e+03
3.177151e+03,3.446247e+03
3.188722e+03,3.434560e+03
3.200292e+03,3.426091e+03
3.211863e+03,0.000000e+00
3.223434e+03,0.000000e+00
3.235005e+03,0.000000e+00
3.246576e+03,0.000000e+00
3.258146e+03,0.000000e+00
3.269717e+03,0.000000e+00
3.281288e+03,0.000000e+00
3.292859e+03,0.000000e+00
3.304430e+03,0.000000e+00
3.316000e+03,0.000000e+00
3.327571e+03,0.000000e+00
3.339142e+03,0.000000e+00
3.350713e+03,0.000000e+00
3.362284e+03,0.000000e+00
3.373854e+03,0.000000e+00
3.385425e+03,0.000000e+00
3.396996e+03,0.000000e+00
3.408567e+03,0.000000e+00
3.420138e+03,0.000000e+00
3.431708e+03,0.000000e+00
3.443279e+03,0.000000e+00
3.454850e+03,0.000000e+00
3.466421e+03,0.000000e+00
3.477992e+03,0.000000e+00
3.489563e+03,0.000000e+00
3.500169e+03,0.000000e+00