File: RAMAN_data/13042023_r1/black fibre7.CSV
9.931763e+01,0.000000e+00
1.108884e+02,0.000000e+00
1.224592e+02,0.000000e+00
1.340300e+02,0.000000e+00
1.456008e+02,0.000000e+00
1.571716e+02,0.000000e+00
1.687424e+02,0.000000e+00
1.803132e+02,0.000000e+00
1.918840e+02,0.000000e+00
2.034548e+02,1.017584e+04
2.150256e+02,1.015103e+04
2.265964e+02,1.015407e+04
2.381673e+02,1.020954e+04
2.497381e+02,1.019711e+04
2.613088e+02,1.021405e+04
2.728796e+02,1.020372e+04
2.844504e+02,1.024113e+04
2.960212e+02,1.024776e+04
3.075920e+02,1.022799e+04
3.191628e+02,1.022613e+04
3.307336e+02,1.018188e+04
3.423044e+02,1.011826e+04
3.538752e+02,1.001575e+04
3.654461e+02,9.979272e+03
3.770169e+02,9.910582e+03
3.885877e+02,9.849828e+03
4.001585e+02,9.753654e+03
4.117293e+02,9.673874e+03
4.233001e+02,9.626778e+03
4.348709e+02,9.541010e+03
4.464417e+02,9.447245e+03
4.580125e+02,9.416796e+03
4.695833e+02,9.344473e+03
4.811541e+02,9.275790e+03
4.927249e+02,9.199927e+03
5.042957e+02,9.156484e+03
5.158665e+02,9.073465e+03
5.274373e+02,9.059650e+03
5.390081e+02,8.931265e+03
5.505789e+02,8.860216e+03
5.621497e+02,8.832700e+03
5.737205e+02,8.747639e+03
5.852913e+02,8.660500e+03
5.968621e+02,8.628229e+03
6.084329e+02,8.600185e+03
6.200037e+02,8.495830e+03
6.315745e+02,8.410649e+03
6.431453e+02,8.366151e+03
6.547161e+02,8.318463e+03
6.662869e+02,8.233176e+03
6.778577e+02,8.195081e+03
6.894285e+02,8.117598e+03
7.009993e+02,8.090817e+03
7.125701e+02,8.032885e+03
7.241409e+02,7.969834e+03
7.357117e+02,7.896468e+03
7.472825e+02,7.852949e+03
7.588533e+02,7.809416e+03
7.704241e+02,7.742986e+03
7.819949e+02,7.656434e+03
7.935657e+02,7.654080e+03
8.051365e+02,7.585183e+03
8.167073e+02,7.497742e+03
8.282781e+02,7.469795e+03
8.398489e+02,7.431258e+03
8.514197e+02,7.340079e+03
8.629905e+02,7.329797e+03
8.745613e+02,7.241483e+03
8.861321e+02,7.252549e+03
8.977029e+02,7.172453e+03
9.092737e+02,7.121986e+03
9.208445e+02,7.055143e+03
9.324153e+02,7.043821e+03
9.439861e+02,6.945521e+03
9.555569e+02,6.914117e+03
9.671277e+02,6.855318e+03
9.786985e+02,6.832391e+03
9.902693e+02,6.773247e+03
1.001840e+03,6.704025e+03
1.013411e+03,6.659297e+03
1.024982e+03,6.640188e+03
1.036552e+03,6.601877e+03
1.048123e+03,6.536246e+03
1.059694e+03,6.493735e+03
1.071265e+03,6.457546e+03
1.082836e+03,6.424280e+03
1.094406e+03,6.360604e+03
1.105977e+03,6.349649e+03
1.117548e+03,6.329765e+03
1.129119e+03,6.245929e+03
1.140690e+03,6.224845e+03
1.152261e+03,6.191229e+03
1.163831e+03,6.149466e+03
1.175402e+03,6.079352e+03
1.186973e+03,6.031579e+03
1.198544e+03,6.023670e+03
1.210115e+03,5.978669e+03
1.221685e+03,5.910743e+03
1.233256e+03,5.850149e+03
1.244827e+03,5.828998e+03
1.256398e+03,5.802506e+03
1.267969e+03,5.745080e+03
1.279539e+03,5.713075e+03
1.291110e+03,5.698690e+03
1.302681e+03,5.623510e+03
1.314252e+03,5.591284e+03
1.325823e+03,5.562135e+03
1.337393e+03,5.539574e+03
1.348964e+03,5.480236e+03
1.360535e+03,5.438298e+03
1.372106e+03,5.409445e+03
1.383677e+03,5.336121e+03
1.395247e+03,5.315269e+03
1.406818e+03,5.257655e+03
1.418389e+03,5.236174e+03
1.429960e+03,5.176926e+03
1.441531e+03,5.140670e+03
1.453101e+03,5.087093e+03
1.464672e+03,5.062344e+03
1.476243e+03,5.035851e+03
1.487814e+03,4.963177e+03
1.499385e+03,4.934345e+03
1.510955e+03,4.885939e+03
1.522526e+03,4.875857e+03
1.534097e+03,4.808421e+03
1.545668e+03,4.766970e+03
1.557239e+03,4.748134e+03
1.568809e+03,4.722648e+03
1.580380e+03,4.698457e+03
1.591951e+03,4.640272e+03
1.603522e+03,4.610937e+03
1.615093e+03,4.536321e+03
1.626663e+03,4.519445e+03
1.638234e+03,4.456675e+03
1.649805e+03,4.417221e+03
1.661376e+03,4.377902e+03
1.672947e+03,4.344051e+03
1.684517e+03,4.299276e+03
1.696088e+03,4.260606e+03
1.707659e+03,4.239155e+03
1.719230e+03,4.175915e+03
1.730801e+03,4.144483e+03
1.742371e+03,4.103402e+03
1.753942e+03,4.079828e+03
1.765513e+03,4.043201e+03
1.777084e+03,4.025770e+03
1.788655e+03,3.983106e+03
1.800225e+03,3.922990e+03
1.811796e+03,3.881020e+03
1.823367e+03,3.846997e+03
1.834938e+03,3.838013e+03
1.846509e+03,3.759357e+03
1.858079e+03,3.741027e+03
1.869650e+03,3.695050e+03
1.881221e+03,3.634000e+03
1.892792e+03,3.644376e+03
1.904363e+03,3.595917e+03
1.915933e+03,3.538339e+03
1.927504e+03,3.526864e+03
1.939075e+03,3.452975e+03
1.950646e+03,3.417720e+03
1.962217e+03,3.407138e+03
1.973787e+03,3.354417e+03
1.985358e+03,3.345648e+03
1.996929e+03,3.258620e+03
2.008500e+03,3.239200e+03
2.020071e+03,3.211270e+03
2.031641e+03,3.209615e+03
2.043212e+03,3.161690e+03
2.054783e+03,3.102374e+03
2.066354e+03,3.080626e+03
2.077925e+03,3.051155e+03
2.089496e+03,3.008425e+03
2.101066e+03,2.961107e+03
2.112637e+03,2.937623e+03
2.124208e+03,2.907017e+03
2.135779e+03,2.883208e+03
2.147350e+03,2.829621e+03
2.158920e+03,2.829246e+03
2.170491e+03,2.785239e+03
2.182062e+03,2.756901e+03
2.193633e+03,2.714100e+03
2.205204e+03,2.674389e+03
2.216774e+03,2.673786e+03
2.228345e+03,2.610036e+03
2.239916e+03,2.579260e+03
2.251487e+03,2.562723e+03
2.263058e+03,2.501381e+03
2.274628e+03,2.489493e+03
2.286199e+03,2.437009e+03
2.297770e+03,2.441014e+03
2.309341e+03,2.392599e+03
2.320912e+03,2.356221e+03
2.332482e+03,2.343310e+03
2.344053e+03,2.337208e+03
2.355624e+03,2.302974e+03
2.367195e+03,2.238256e+03
2.378766e+03,2.222614e+03
2.390336e+03,2.194813e+03
2.401907e+03,2.174717e+03
2.413478e+03,2.158281e+03
2.425049e+03,2.123035e+03
2.436620e+03,2.102781e+03
2.448190e+03,2.091962e+03
2.459761e+03,2.063302e+03
2.471332e+03,2.042078e+03
2.482903e+03,2.020065e+03
2.494474e+03,1.989739e+03
2.506044e+03,1.961582e+03
2.517615e+03,1.956195e+03
2.529186e+03,1.933163e+03
2.540757e+03,1.895765e+03
2.552328e+03,1.909501e+03
2.563898e+03,1.883722e+03
2.575469e+03,1.861332e+03
2.587040e+03,1.834856e+03
2.598611e+03,1.827088e+03
2.610182e+03,1.783063e+03
2.621752e+03,1.777256e+03
2.633323e+03,1.771993e+03
2.644894e+03,1.748964e+03
2.656465e+03,1.761676e+03
2.668036e+03,1.728915e+03
2.679606e+03,1.695725e+03
2.691177e+03,1.676137e+03
2.702748e+03,1.639055e+03
2.714319e+03,1.659554e+03
2.725890e+03,1.671690e+03
2.737460e+03,1.642155e+03
2.749031e+03,1.610676e+03
2.760602e+03,1.596899e+03
2.772173e+03,1.579166e+03
2.783744e+03,1.559069e+03
2.795314e+03,1.570097e+03
2.806885e+03,1.554108e+03
2.818456e+03,1.533574e+03
2.830027e+03,1.517190e+03
2.841598e+03,1.513148e+03
2.853168e+03,1.507952e+03
2.864739e+03,1.520074e+03
2.876310e+03,1.499394e+03
2.887881e+03,1.464288e+03
2.899452e+03,1.486413e+03
2.911022e+03,1.469799e+03
2.922593e+03,1.454832e+03
2.934164e+03,1.443608e+03
2.945735e+03,1.465676e+03
2.957306e+03,1.469757e+03
2.968876e+03,1.390495e+03
2.980447e+03,1.382333e+03
2.992018e+03,1.400809e+03
3.003589e+03,1.351614e+03
3.015160e+03,1.383303e+03
3.026730e+03,1.362430e+03
3.038301e+03,1.350942e+03
3.049872e+03,1.353061e+03
3.061443e+03,1.354182e+03
3.073014e+03,1.348750e+03
3.084584e+03,1.345596e+03
3.096155e+03,1.351205e+03
3.107726e+03,1.315258e+03
3.119297e+03,1.318692e+03
3.130868e+03,1.322954e+03
3.142438e+03,1.374444e+03
3.154009e+03,1.335546e+03
3.165580e+03,1.321427e+03
3.177151e+03,1.365768e+03
3.188722e+03,1.346863e+03
3.200292e+03,1.361303e+03
3.211863e+03,0.000000e+00
3.223434e+03,0.000000e+00
3.235005e+03,0.000000e+00
3.246576e+03,0.000000e+00
3.258146e+03,0.000000e+00
3.269717e+03,0.000000e+00
3.281288e+03,0.000000e+00
3.292859e+03,0.000000e+00
3.304430e+03,0.000000e+00
3.316000e+03,0.000000e+00
3.327571e+03,0.000000e+00
3.339142e+03,0.000000e+00
3.350713e+03,0.000000e+00
3.362284e+03,0.000000e+00
3.373854e+03,0.000000e+00
3.385425e+03,0.000000e+00
3.396996e+03,0.000000e+00
3.408567e+03,0.000000e+00
3.420138e+03,0.000000e+00
3.431708e+03,0.000000e+00
3.443279e+03,0.000000e+00
3.454850e+03,0.000000e+00
3.466421e+03,0.000000e+00
3.477992e+03,0.000000e+00
3.489563e+03,0.000000e+00
3.500169e+03,0.000000e+00