File: RAMAN_data/13042023_r1/black fibre1.CSV
9.931763e+01,0.000000e+00
1.108884e+02,0.000000e+00
1.224592e+02,0.000000e+00
1.340300e+02,0.000000e+00
1.456008e+02,0.000000e+00
1.571716e+02,0.000000e+00
1.687424e+02,0.000000e+00
1.803132e+02,0.000000e+00
1.918840e+02,0.000000e+00
2.034548e+02,1.052034e+04
2.150256e+02,1.057994e+04
2.265964e+02,1.068749e+04
2.381673e+02,1.083688e+04
2.497381e+02,1.092293e+04
2.613088e+02,1.102010e+04
2.728796e+02,1.114520e+04
2.844504e+02,1.128402e+04
2.960212e+02,1.139113e+04
3.075920e+02,1.148884e+04
3.191628e+02,1.160888e+04
3.307336e+02,1.175929e+04
3.423044e+02,1.189110e+04
3.538752e+02,1.203903e+04
3.654461e+02,1.215143e+04
3.770169e+02,1.231209e+04
3.885877e+02,1.246715e+04
4.001585e+02,1.259571e+04
4.117293e+02,1.274472e+04
4.233001e+02,1.288676e+04
4.348709e+02,1.304558e+04
4.464417e+02,1.321787e+04
4.580125e+02,1.333318e+04
4.695833e+02,1.347483e+04
4.811541e+02,1.354627e+04
4.927249e+02,1.362679e+04
5.042957e+02,1.370077e+04
5.158665e+02,1.367593e+04
5.274373e+02,1.371460e+04
5.390081e+02,1.365834e+04
5.505789e+02,1.368090e+04
5.621497e+02,1.367364e+04
5.737205e+02,1.365820e+04
5.852913e+02,1.365740e+04
5.968621e+02,1.366633e+04
6.084329e+02,1.364859e+04
6.200037e+02,1.361709e+04
6.315745e+02,1.363460e+04
6.431453e+02,1.364162e+04
6.547161e+02,1.364887e+04
6.662869e+02,1.360336e+04
6.778577e+02,1.352604e+04
6.894285e+02,1.347264e+04
7.009993e+02,1.341428e+04
7.125701e+02,1.334647e+04
7.241409e+02,1.332322e+04
7.357117e+02,1.330108e+04
7.472825e+02,1.323028e+04
7.588533e+02,1.315780e+04
7.704241e+02,1.304279e+04
7.819949e+02,1.303049e+04
7.935657e+02,1.299411e+04
8.051365e+02,1.290175e+04
8.167073e+02,1.281066e+04
8.282781e+02,1.279434e+04
8.398489e+02,1.273892e+04
8.514197e+02,1.272021e+04
8.629905e+02,1.264348e+04
8.745613e+02,1.255834e+04
8.861321e+02,1.253872e+04
8.977029e+02,1.243293e+04
9.092737e+02,1.235956e+04
9.208445e+02,1.226960e+04
9.324153e+02,1.220660e+04
9.439861e+02,1.218122e+04
9.555569e+02,1.214972e+04
9.671277e+02,1.205973e+04
9.786985e+02,1.203174e+04
9.902693e+02,1.194806e+04
1.001840e+03,1.186654e+04
1.013411e+03,1.183659e+04
1.024982e+03,1.179783e+04
1.036552e+03,1.171459e+04
1.048123e+03,1.165594e+04
1.059694e+03,1.163443e+04
1.071265e+03,1.164662e+04
1.082836e+03,1.156815e+04
1.094406e+03,1.140885e+04
1.105977e+03,1.139384e+04
1.117548e+03,1.137656e+04
1.129119e+03,1.127121e+04
1.140690e+03,1.123596e+04
1.152261e+03,1.125953e+04
1.163831e+03,1.125361e+04
1.175402e+03,1.114041e+04
1.186973e+03,1.099581e+04
1.198544e+03,1.097332e+04
1.210115e+03,1.093054e+04
1.221685e+03,1.081165e+04
1.233256e+03,1.073085e+04
1.244827e+03,1.070801e+04
1.256398e+03,1.059974e+04
1.267969e+03,1.055857e+04
1.279539e+03,1.053116e+04
1.291110e+03,1.048209e+04
1.302681e+03,1.042905e+04
1.314252e+03,1.036833e+04
1.325823e+03,1.038665e+04
1.337393e+03,1.028630e+04
1.348964e+03,1.016989e+04
1.360535e+03,1.007261e+04
1.372106e+03,9.996089e+03
1.383677e+03,9.951354e+03
1.395247e+03,9.845650e+03
1.406818e+03,9.786259e+03
1.418389e+03,9.774229e+03
1.429960e+03,9.656535e+03
1.441531e+03,9.614079e+03
1.453101e+03,9.525540e+03
1.464672e+03,9.495324e+03
1.476243e+03,9.374481e+03
1.487814e+03,9.340436e+03
1.499385e+03,9.267415e+03
1.510955e+03,9.225754e+03
1.522526e+03,9.167252e+03
1.534097e+03,9.093101e+03
1.545668e+03,9.005311e+03
1.557239e+03,9.011341e+03
1.568809e+03,9.020438e+03
1.580380e+03,8.959916e+03
1.591951e+03,8.839321e+03
1.603522e+03,8.831612e+03
1.615093e+03,8.787462e+03
1.626663e+03,8.678656e+03
1.638234e+03,8.616083e+03
1.649805e+03,8.560692e+03
1.661376e+03,8.455815e+03
1.672947e+03,8.360184e+03
1.684517e+03,8.337462e+03
1.696088e+03,8.303650e+03
1.707659e+03,8.186374e+03
1.719230e+03,8.162031e+03
1.730801e+03,8.123745e+03
1.742371e+03,8.063401e+03
1.753942e+03,8.007830e+03
1.765513e+03,7.936455e+03
1.777084e+03,7.898510e+03
1.788655e+03,7.840805e+03
1.800225e+03,7.791329e+03
1.811796e+03,7.755436e+03
1.823367e+03,7.661516e+03
1.834938e+03,7.611647e+03
1.846509e+03,7.570979e+03
1.858079e+03,7.515868e+03
1.869650e+03,7.435451e+03
1.881221e+03,7.392833e+03
1.892792e+03,7.339835e+03
1.904363e+03,7.273158e+03
1.915933e+03,7.213322e+03
1.927504e+03,7.170153e+03
1.939075e+03,7.088779e+03
1.950646e+03,7.025997e+03
1.962217e+03,6.944274e+03
1.973787e+03,6.938757e+03
1.985358e+03,6.873008e+03
1.996929e+03,6.836328e+03
2.008500e+03,6.783323e+03
2.020071e+03,6.686838e+03
2.031641e+03,6.672743e+03
2.043212e+03,6.543255e+03
2.054783e+03,6.500547e+03
2.066354e+03,6.498355e+03
2.077925e+03,6.409550e+03
2.089496e+03,6.356905e+03
2.101066e+03,6.304786e+03
2.112637e+03,6.250053e+03
2.124208e+03,6.205132e+03
2.135779e+03,6.111255e+03
2.147350e+03,5.991847e+03
2.158920e+03,5.995548e+03
2.170491e+03,5.928105e+03
2.182062e+03,5.876939e+03
2.193633e+03,5.825766e+03
2.205204e+03,5.796507e+03
2.216774e+03,5.752392e+03
2.228345e+03,5.655106e+03
2.239916e+03,5.599561e+03
2.251487e+03,5.547669e+03
2.263058e+03,5.493837e+03
2.274628e+03,5.432282e+03
2.286199e+03,5.337499e+03
2.297770e+03,5.327961e+03
2.309341e+03,5.255907e+03
2.320912e+03,5.203571e+03
2.332482e+03,5.145888e+03
2.344053e+03,5.106032e+03
2.355624e+03,5.047795e+03
2.367195e+03,4.959163e+03
2.378766e+03,4.943208e+03
2.390336e+03,4.871941e+03
2.401907e+03,4.833559e+03
2.413478e+03,4.760935e+03
2.425049e+03,4.739711e+03
2.436620e+03,4.691709e+03
2.448190e+03,4.622463e+03
2.459761e+03,4.565847e+03
2.471332e+03,4.520518e+03
2.482903e+03,4.502484e+03
2.494474e+03,4.450396e+03
2.506044e+03,4.396344e+03
2.517615e+03,4.340889e+03
2.529186e+03,4.351497e+03
2.540757e+03,4.249058e+03
2.552328e+03,4.236608e+03
2.563898e+03,4.197084e+03
2.575469e+03,4.195091e+03
2.587040e+03,4.092038e+03
2.598611e+03,4.081872e+03
2.610182e+03,4.064172e+03
2.621752e+03,4.040475e+03
2.633323e+03,4.022069e+03
2.644894e+03,3.935014e+03
2.656465e+03,3.905680e+03
2.668036e+03,3.861263e+03
2.679606e+03,3.856460e+03
2.691177e+03,3.764981e+03
2.702748e+03,3.781094e+03
2.714319e+03,3.748741e+03
2.725890e+03,3.714883e+03
2.737460e+03,3.682429e+03
2.749031e+03,3.650691e+03
2.760602e+03,3.625229e+03
2.772173e+03,3.576113e+03
2.783744e+03,3.557222e+03
2.795314e+03,3.550387e+03
2.806885e+03,3.516989e+03
2.818456e+03,3.502307e+03
2.830027e+03,3.498933e+03
2.841598e+03,3.424847e+03
2.853168e+03,3.398632e+03
2.864739e+03,3.404514e+03
2.876310e+03,3.409103e+03
2.887881e+03,3.410755e+03
2.899452e+03,3.327792e+03
2.911022e+03,3.307813e+03
2.922593e+03,3.273607e+03
2.934164e+03,3.239863e+03
2.945735e+03,3.236644e+03
2.957306e+03,3.199596e+03
2.968876e+03,3.127833e+03
2.980447e+03,3.156559e+03
2.992018e+03,3.190431e+03
3.003589e+03,3.157411e+03
3.015160e+03,3.098618e+03
3.026730e+03,3.094865e+03
3.038301e+03,3.085083e+03
3.049872e+03,3.039294e+03
3.061443e+03,3.062073e+03
3.073014e+03,3.038585e+03
3.084584e+03,3.079710e+03
3.096155e+03,3.036982e+03
3.107726e+03,2.985822e+03
3.119297e+03,2.944959e+03
3.130868e+03,2.945725e+03
3.142438e+03,2.989981e+03
3.154009e+03,2.977789e+03
3.165580e+03,2.978446e+03
3.177151e+03,2.955736e+03
3.188722e+03,2.912300e+03
3.200292e+03,2.910849e+03
3.211863e+03,0.000000e+00
3.223434e+03,0.000000e+00
3.235005e+03,0.000000e+00
3.246576e+03,0.000000e+00
3.258146e+03,0.000000e+00
3.269717e+03,0.000000e+00
3.281288e+03,0.000000e+00
3.292859e+03,0.000000e+00
3.304430e+03,0.000000e+00
3.316000e+03,0.000000e+00
3.327571e+03,0.000000e+00
3.339142e+03,0.000000e+00
3.350713e+03,0.000000e+00
3.362284e+03,0.000000e+00
3.373854e+03,0.000000e+00
3.385425e+03,0.000000e+00
3.396996e+03,0.000000e+00
3.408567e+03,0.000000e+00
3.420138e+03,0.000000e+00
3.431708e+03,0.000000e+00
3.443279e+03,0.000000e+00
3.454850e+03,0.000000e+00
3.466421e+03,0.000000e+00
3.477992e+03,0.000000e+00
3.489563e+03,0.000000e+00
3.500169e+03,0.000000e+00