File: RAMAN_data/13042023_r1/black fibre10.CSV
9.931763e+01,0.000000e+00
1.108884e+02,0.000000e+00
1.224592e+02,0.000000e+00
1.340300e+02,0.000000e+00
1.456008e+02,0.000000e+00
1.571716e+02,0.000000e+00
1.687424e+02,0.000000e+00
1.803132e+02,0.000000e+00
1.918840e+02,0.000000e+00
2.034548e+02,1.052034e+04
2.150256e+02,1.057994e+04
2.265964e+02,1.068749e+04
2.381673e+02,1.083688e+04
2.497381e+02,1.092293e+04
2.613088e+02,1.102010e+04
2.728796e+02,1.114520e+04
2.844504e+02,1.128402e+04
2.960212e+02,1.139113e+04
3.075920e+02,1.148884e+04
3.191628e+02,1.160888e+04
3.307336e+02,1.175929e+04
3.423044e+02,1.189110e+04
3.538752e+02,1.203903e+04
3.654461e+02,1.215143e+04
3.770169e+02,1.231209e+04
3.885877e+02,1.246715e+04
4.001585e+02,1.259577e+04
4.117293e+02,1.266041e+04
4.233001e+02,1.273395e+04
4.348709e+02,1.274104e+04
4.464417e+02,1.273928e+04
4.580125e+02,1.270956e+04
4.695833e+02,1.268672e+04
4.811541e+02,1.263315e+04
4.927249e+02,1.262895e+04
5.042957e+02,1.253683e+04
5.158665e+02,1.251159e+04
5.274373e+02,1.232729e+04
5.390081e+02,1.222361e+04
5.505789e+02,1.212083e+04
5.621497e+02,1.204238e+04
5.737205e+02,1.190359e+04
5.852913e+02,1.183521e+04
5.968621e+02,1.168392e+04
6.084329e+02,1.162304e+04
6.200037e+02,1.147337e+04
6.315745e+02,1.138067e+04
6.431453e+02,1.120374e+04
6.547161e+02,1.116042e+04
6.662869e+02,1.108562e+04
6.778577e+02,1.096226e+04
6.894285e+02,1.083767e+04
7.009993e+02,1.081553e+04
7.125701e+02,1.072757e+04
7.241409e+02,1.062813e+04
7.357117e+02,1.054815e+04
7.472825e+02,1.048081e+04
7.588533e+02,1.036139e+04
7.704241e+02,1.031375e+04
7.819949e+02,1.021174e+04
7.935657e+02,1.011706e+04
8.051365e+02,1.003808e+04
8.167073e+02,9.962160e+03
8.282781e+02,9.865799e+03
8.398489e+02,9.831647e+03
8.514197e+02,9.744941e+03
8.629905e+02,9.638106e+03
8.745613e+02,9.594067e+03
8.861321e+02,9.528821e+03
8.977029e+02,9.465493e+03
9.092737e+02,9.377354e+03
9.208445e+02,9.327290e+03
9.324153e+02,9.268190e+03
9.439861e+02,9.238138e+03
9.555569e+02,9.089669e+03
9.671277e+02,9.085290e+03
9.786985e+02,9.039428e+03
9.902693e+02,8.931996e+03
1.001840e+03,8.878254e+03
1.013411e+03,8.794176e+03
1.024982e+03,8.776675e+03
1.036552e+03,8.678232e+03
1.048123e+03,8.625724e+03
1.059694e+03,8.649199e+03
1.071265e+03,8.606080e+03
1.082836e+03,8.546161e+03
1.094406e+03,8.478558e+03
1.105977e+03,8.434030e+03
1.117548e+03,8.397877e+03
1.129119e+03,8.331954e+03
1.140690e+03,8.325359e+03
1.152261e+03,8.299988e+03
1.163831e+03,8.279951e+03
1.175402e+03,8.146263e+03
1.186973e+03,8.087610e+03
1.198544e+03,8.094506e+03
1.210115e+03,8.012893e+03
1.221685e+03,7.968264e+03
1.233256e+03,7.884357e+03
1.244827e+03,7.855860e+03
1.256398e+03,7.797357e+03
1.267969e+03,7.750268e+03
1.279539e+03,7.734471e+03
1.291110e+03,7.712131e+03
1.302681e+03,7.659881e+03
1.314252e+03,7.648717e+03
1.325823e+03,7.618748e+03
1.337393e+03,7.570773e+03
1.348964e+03,7.496568e+03
1.360535e+03,7.420123e+03
1.372106e+03,7.394367e+03
1.383677e+03,7.321944e+03
1.395247e+03,7.252024e+03
1.406818e+03,7.187317e+03
1.418389e+03,7.140697e+03
1.429960e+03,7.087780e+03
1.441531e+03,7.042628e+03
1.453101e+03,6.969706e+03
1.464672e+03,6.933497e+03
1.476243e+03,6.887214e+03
1.487814e+03,6.821983e+03
1.499385e+03,6.777522e+03
1.510955e+03,6.704823e+03
1.522526e+03,6.692055e+03
1.534097e+03,6.642179e+03
1.545668e+03,6.572284e+03
1.557239e+03,6.544117e+03
1.568809e+03,6.484761e+03
1.580380e+03,6.464962e+03
1.591951e+03,6.330620e+03
1.603522e+03,6.300026e+03
1.615093e+03,6.264005e+03
1.626663e+03,6.157083e+03
1.638234e+03,6.093923e+03
1.649805e+03,5.989421e+03
1.661376e+03,5.964397e+03
1.672947e+03,5.886277e+03
1.684517e+03,5.829596e+03
1.696088e+03,5.811886e+03
1.707659e+03,5.759585e+03
1.719230e+03,5.677581e+03
1.730801e+03,5.633039e+03
1.742371e+03,5.585113e+03
1.753942e+03,5.510277e+03
1.765513e+03,5.470776e+03
1.777084e+03,5.396880e+03
1.788655e+03,5.328284e+03
1.800225e+03,5.285336e+03
1.811796e+03,5.221003e+03
1.823367e+03,5.135045e+03
1.834938e+03,5.092478e+03
1.846509e+03,5.067110e+03
1.858079e+03,4.984849e+03
1.869650e+03,4.930994e+03
1.881221e+03,4.871194e+03
1.892792e+03,4.825873e+03
1.904363e+03,4.794140e+03
1.915933e+03,4.718030e+03
1.927504e+03,4.652682e+03
1.939075e+03,4.590878e+03
1.950646e+03,4.526167e+03
1.962217e+03,4.455344e+03
1.973787e+03,4.403944e+03
1.985358e+03,4.388352e+03
1.996929e+03,4.307142e+03
2.008500e+03,4.290459e+03
2.020071e+03,4.203729e+03
2.031641e+03,4.184864e+03
2.043212e+03,4.133725e+03
2.054783e+03,4.058653e+03
2.066354e+03,4.018613e+03
2.077925e+03,3.979594e+03
2.089496e+03,3.940646e+03
2.101066e+03,3.849458e+03
2.112637e+03,3.831552e+03
2.124208e+03,3.777013e+03
2.135779e+03,3.730395e+03
2.147350e+03,3.643634e+03
2.158920e+03,3.629970e+03
2.170491e+03,3.585603e+03
2.182062e+03,3.521752e+03
2.193633e+03,3.457006e+03
2.205204e+03,3.451669e+03
2.216774e+03,3.411186e+03
2.228345e+03,3.374717e+03
2.239916e+03,3.319881e+03
2.251487e+03,3.308732e+03
2.263058e+03,3.217858e+03
2.274628e+03,3.201368e+03
2.286199e+03,3.157484e+03
2.297770e+03,3.129231e+03
2.309341e+03,3.043765e+03
2.320912e+03,3.040450e+03
2.332482e+03,3.005018e+03
2.344053e+03,2.971055e+03
2.355624e+03,2.909107e+03
2.367195e+03,2.886215e+03
2.378766e+03,2.853499e+03
2.390336e+03,2.819471e+03
2.401907e+03,2.768844e+03
2.413478e+03,2.748888e+03
2.425049e+03,2.742551e+03
2.436620e+03,2.685893e+03
2.448190e+03,2.650493e+03
2.459761e+03,2.637500e+03
2.471332e+03,2.614160e+03
2.482903e+03,2.587638e+03
2.494474e+03,2.545280e+03
2.506044e+03,2.520518e+03
2.517615e+03,2.528371e+03
2.529186e+03,2.459188e+03
2.540757e+03,2.424688e+03
2.552328e+03,2.418989e+03
2.563898e+03,2.378767e+03
2.575469e+03,2.372755e+03
2.587040e+03,2.344753e+03
2.598611e+03,2.333419e+03
2.610182e+03,2.319819e+03
2.621752e+03,2.309445e+03
2.633323e+03,2.283548e+03
2.644894e+03,2.273779e+03
2.656465e+03,2.251542e+03
2.668036e+03,2.220895e+03
2.679606e+03,2.225323e+03
2.691177e+03,2.150199e+03
2.702748e+03,2.147386e+03
2.714319e+03,2.131315e+03
2.725890e+03,2.103717e+03
2.737460e+03,2.090755e+03
2.749031e+03,2.110353e+03
2.760602e+03,2.072924e+03
2.772173e+03,2.063519e+03
2.783744e+03,2.002547e+03
2.795314e+03,2.014240e+03
2.806885e+03,2.037703e+03
2.818456e+03,1.960972e+03
2.830027e+03,1.965510e+03
2.841598e+03,1.981608e+03
2.853168e+03,1.956739e+03
2.864739e+03,1.927667e+03
2.876310e+03,1.939807e+03
2.887881e+03,1.917450e+03
2.899452e+03,1.909178e+03
2.911022e+03,1.874112e+03
2.922593e+03,1.853402e+03
2.934164e+03,1.856262e+03
2.945735e+03,1.851878e+03
2.957306e+03,1.850892e+03
2.968876e+03,1.842243e+03
2.980447e+03,1.771801e+03
2.992018e+03,1.749308e+03
3.003589e+03,1.817739e+03
3.015160e+03,1.763147e+03
3.026730e+03,1.735792e+03
3.038301e+03,1.744799e+03
3.049872e+03,1.741272e+03
3.061443e+03,1.730232e+03
3.073014e+03,1.725523e+03
3.084584e+03,1.737602e+03
3.096155e+03,1.698712e+03
3.107726e+03,1.655475e+03
3.119297e+03,1.715571e+03
3.130868e+03,1.718605e+03
3.142438e+03,1.732543e+03
3.154009e+03,1.652522e+03
3.165580e+03,1.673603e+03
3.177151e+03,1.715507e+03
3.188722e+03,1.739103e+03
3.200292e+03,1.762025e+03
3.211863e+03,0.000000e+00
3.223434e+03,0.000000e+00
3.235005e+03,0.000000e+00
3.246576e+03,0.000000e+00
3.258146e+03,0.000000e+00
3.269717e+03,0.000000e+00
3.281288e+03,0.000000e+00
3.292859e+03,0.000000e+00
3.304430e+03,0.000000e+00
3.316000e+03,0.000000e+00
3.327571e+03,0.000000e+00
3.339142e+03,0.000000e+00
3.350713e+03,0.000000e+00
3.362284e+03,0.000000e+00
3.373854e+03,0.000000e+00
3.385425e+03,0.000000e+00
3.396996e+03,0.000000e+00
3.408567e+03,0.000000e+00
3.420138e+03,0.000000e+00
3.431708e+03,0.000000e+00
3.443279e+03,0.000000e+00
3.454850e+03,0.000000e+00
3.466421e+03,0.000000e+00
3.477992e+03,0.000000e+00
3.489563e+03,0.000000e+00
3.500169e+03,0.000000e+00