File: RAMAN_data/13042023_r1/blue fibre5.CSV
9.931763e+01,0.000000e+00
1.108884e+02,0.000000e+00
1.224592e+02,0.000000e+00
1.340300e+02,0.000000e+00
1.456008e+02,0.000000e+00
1.571716e+02,0.000000e+00
1.687424e+02,0.000000e+00
1.803132e+02,0.000000e+00
1.918840e+02,0.000000e+00
2.034548e+02,1.052034e+04
2.150256e+02,1.057994e+04
2.265964e+02,1.068749e+04
2.381673e+02,1.083688e+04
2.497381e+02,1.092293e+04
2.613088e+02,1.102010e+04
2.728796e+02,1.114520e+04
2.844504e+02,1.128402e+04
2.960212e+02,1.139113e+04
3.075920e+02,1.148884e+04
3.191628e+02,1.160888e+04
3.307336e+02,1.175929e+04
3.423044e+02,1.189110e+04
3.538752e+02,1.203903e+04
3.654461e+02,1.215143e+04
3.770169e+02,1.231209e+04
3.885877e+02,1.246715e+04
4.001585e+02,1.259571e+04
4.117293e+02,1.274472e+04
4.233001e+02,1.288676e+04
4.348709e+02,1.304558e+04
4.464417e+02,1.321787e+04
4.580125e+02,1.333318e+04
4.695833e+02,1.347680e+04
4.811541e+02,1.354101e+04
4.927249e+02,1.359303e+04
5.042957e+02,1.363733e+04
5.158665e+02,1.369608e+04
5.274373e+02,1.367273e+04
5.390081e+02,1.360216e+04
5.505789e+02,1.359083e+04
5.621497e+02,1.355706e+04
5.737205e+02,1.346132e+04
5.852913e+02,1.341679e+04
5.968621e+02,1.340608e+04
6.084329e+02,1.335064e+04
6.200037e+02,1.321329e+04
6.315745e+02,1.309558e+04
6.431453e+02,1.298888e+04
6.547161e+02,1.286846e+04
6.662869e+02,1.275484e+04
6.778577e+02,1.259796e+04
6.894285e+02,1.252133e+04
7.009993e+02,1.242793e+04
7.125701e+02,1.233545e+04
7.241409e+02,1.220743e+04
7.357117e+02,1.206801e+04
7.472825e+02,1.198204e+04
7.588533e+02,1.186810e+04
7.704241e+02,1.173759e+04
7.819949e+02,1.166007e+04
7.935657e+02,1.156363e+04
8.051365e+02,1.143500e+04
8.167073e+02,1.135007e+04
8.282781e+02,1.123383e+04
8.398489e+02,1.115680e+04
8.514197e+02,1.104603e+04
8.629905e+02,1.095030e+04
8.745613e+02,1.087524e+04
8.861321e+02,1.078651e+04
8.977029e+02,1.067064e+04
9.092737e+02,1.055381e+04
9.208445e+02,1.042377e+04
9.324153e+02,1.038134e+04
9.439861e+02,1.027019e+04
9.555569e+02,1.014575e+04
9.671277e+02,1.008930e+04
9.786985e+02,1.001539e+04
9.902693e+02,9.900354e+03
1.001840e+03,9.781983e+03
1.013411e+03,9.719084e+03
1.024982e+03,9.641466e+03
1.036552e+03,9.563700e+03
1.048123e+03,9.460720e+03
1.059694e+03,9.347519e+03
1.071265e+03,9.295989e+03
1.082836e+03,9.230925e+03
1.094406e+03,9.126697e+03
1.105977e+03,9.048943e+03
1.117548e+03,9.017691e+03
1.129119e+03,8.863171e+03
1.140690e+03,8.774108e+03
1.152261e+03,8.709886e+03
1.163831e+03,8.641849e+03
1.175402e+03,8.509698e+03
1.186973e+03,8.441861e+03
1.198544e+03,8.403549e+03
1.210115e+03,8.306577e+03
1.221685e+03,8.225202e+03
1.233256e+03,8.103475e+03
1.244827e+03,8.061632e+03
1.256398e+03,8.000032e+03
1.267969e+03,7.902378e+03
1.279539e+03,7.828225e+03
1.291110e+03,7.776515e+03
1.302681e+03,7.675624e+03
1.314252e+03,7.624881e+03
1.325823e+03,7.536011e+03
1.337393e+03,7.485104e+03
1.348964e+03,7.425250e+03
1.360535e+03,7.306060e+03
1.372106e+03,7.277094e+03
1.383677e+03,7.209110e+03
1.395247e+03,7.114611e+03
1.406818e+03,7.049582e+03
1.418389e+03,7.014601e+03
1.429960e+03,6.913542e+03
1.441531e+03,6.821326e+03
1.453101e+03,6.748904e+03
1.464672e+03,6.723450e+03
1.476243e+03,6.669907e+03
1.487814e+03,6.545732e+03
1.499385e+03,6.490664e+03
1.510955e+03,6.427087e+03
1.522526e+03,6.358421e+03
1.534097e+03,6.298386e+03
1.545668e+03,6.215549e+03
1.557239e+03,6.200258e+03
1.568809e+03,6.210518e+03
1.580380e+03,6.141757e+03
1.591951e+03,5.966762e+03
1.603522e+03,5.948443e+03
1.615093e+03,5.887263e+03
1.626663e+03,5.768169e+03
1.638234e+03,5.706812e+03
1.649805e+03,5.645884e+03
1.661376e+03,5.604709e+03
1.672947e+03,5.571764e+03
1.684517e+03,5.492095e+03
1.696088e+03,5.427236e+03
1.707659e+03,5.377053e+03
1.719230e+03,5.281347e+03
1.730801e+03,5.254275e+03
1.742371e+03,5.173034e+03
1.753942e+03,5.122804e+03
1.765513e+03,5.082213e+03
1.777084e+03,5.012295e+03
1.788655e+03,4.963804e+03
1.800225e+03,4.914501e+03
1.811796e+03,4.886690e+03
1.823367e+03,4.791275e+03
1.834938e+03,4.706717e+03
1.846509e+03,4.683752e+03
1.858079e+03,4.632409e+03
1.869650e+03,4.557403e+03
1.881221e+03,4.512083e+03
1.892792e+03,4.450021e+03
1.904363e+03,4.399049e+03
1.915933e+03,4.344374e+03
1.927504e+03,4.318381e+03
1.939075e+03,4.241405e+03
1.950646e+03,4.168195e+03
1.962217e+03,4.133533e+03
1.973787e+03,4.100781e+03
1.985358e+03,4.050848e+03
1.996929e+03,3.960974e+03
2.008500e+03,3.960038e+03
2.020071e+03,3.866550e+03
2.031641e+03,3.831151e+03
2.043212e+03,3.758017e+03
2.054783e+03,3.721862e+03
2.066354e+03,3.674556e+03
2.077925e+03,3.618579e+03
2.089496e+03,3.592542e+03
2.101066e+03,3.553676e+03
2.112637e+03,3.479124e+03
2.124208e+03,3.447017e+03
2.135779e+03,3.417519e+03
2.147350e+03,3.324292e+03
2.158920e+03,3.312181e+03
2.170491e+03,3.284122e+03
2.182062e+03,3.209332e+03
2.193633e+03,3.168387e+03
2.205204e+03,3.143073e+03
2.216774e+03,3.075732e+03
2.228345e+03,3.017262e+03
2.239916e+03,2.981652e+03
2.251487e+03,2.943605e+03
2.263058e+03,2.886294e+03
2.274628e+03,2.854436e+03
2.286199e+03,2.794731e+03
2.297770e+03,2.764234e+03
2.309341e+03,2.740182e+03
2.320912e+03,2.692787e+03
2.332482e+03,2.653979e+03
2.344053e+03,2.622552e+03
2.355624e+03,2.572869e+03
2.367195e+03,2.535848e+03
2.378766e+03,2.506527e+03
2.390336e+03,2.466100e+03
2.401907e+03,2.431875e+03
2.413478e+03,2.399475e+03
2.425049e+03,2.384793e+03
2.436620e+03,2.348379e+03
2.448190e+03,2.305634e+03
2.459761e+03,2.271872e+03
2.471332e+03,2.256615e+03
2.482903e+03,2.199120e+03
2.494474e+03,2.198194e+03
2.506044e+03,2.161569e+03
2.517615e+03,2.141264e+03
2.529186e+03,2.103980e+03
2.540757e+03,2.076605e+03
2.552328e+03,2.059439e+03
2.563898e+03,2.057861e+03
2.575469e+03,2.018109e+03
2.587040e+03,1.994451e+03
2.598611e+03,1.975541e+03
2.610182e+03,1.958778e+03
2.621752e+03,1.906354e+03
2.633323e+03,1.901895e+03
2.644894e+03,1.878607e+03
2.656465e+03,1.876354e+03
2.668036e+03,1.856586e+03
2.679606e+03,1.824871e+03
2.691177e+03,1.793389e+03
2.702748e+03,1.779083e+03
2.714319e+03,1.741453e+03
2.725890e+03,1.746068e+03
2.737460e+03,1.709484e+03
2.749031e+03,1.696117e+03
2.760602e+03,1.678144e+03
2.772173e+03,1.678523e+03
2.783744e+03,1.635256e+03
2.795314e+03,1.647455e+03
2.806885e+03,1.649435e+03
2.818456e+03,1.641365e+03
2.830027e+03,1.614728e+03
2.841598e+03,1.567301e+03
2.853168e+03,1.562707e+03
2.864739e+03,1.580950e+03
2.876310e+03,1.592865e+03
2.887881e+03,1.562895e+03
2.899452e+03,1.559407e+03
2.911022e+03,1.533326e+03
2.922593e+03,1.501700e+03
2.934164e+03,1.491716e+03
2.945735e+03,1.479137e+03
2.957306e+03,1.538770e+03
2.968876e+03,1.417952e+03
2.980447e+03,1.449951e+03
2.992018e+03,1.431985e+03
3.003589e+03,1.393825e+03
3.015160e+03,1.437098e+03
3.026730e+03,1.412733e+03
3.038301e+03,1.396053e+03
3.049872e+03,1.406325e+03
3.061443e+03,1.397908e+03
3.073014e+03,1.410043e+03
3.084584e+03,1.402461e+03
3.096155e+03,1.400873e+03
3.107726e+03,1.425820e+03
3.119297e+03,1.356449e+03
3.130868e+03,1.351414e+03
3.142438e+03,1.393922e+03
3.154009e+03,1.436928e+03
3.165580e+03,1.444010e+03
3.177151e+03,1.424280e+03
3.188722e+03,1.417653e+03
3.200292e+03,1.498232e+03
3.211863e+03,0.000000e+00
3.223434e+03,0.000000e+00
3.235005e+03,0.000000e+00
3.246576e+03,0.000000e+00
3.258146e+03,0.000000e+00
3.269717e+03,0.000000e+00
3.281288e+03,0.000000e+00
3.292859e+03,0.000000e+00
3.304430e+03,0.000000e+00
3.316000e+03,0.000000e+00
3.327571e+03,0.000000e+00
3.339142e+03,0.000000e+00
3.350713e+03,0.000000e+00
3.362284e+03,0.000000e+00
3.373854e+03,0.000000e+00
3.385425e+03,0.000000e+00
3.396996e+03,0.000000e+00
3.408567e+03,0.000000e+00
3.420138e+03,0.000000e+00
3.431708e+03,0.000000e+00
3.443279e+03,0.000000e+00
3.454850e+03,0.000000e+00
3.466421e+03,0.000000e+00
3.477992e+03,0.000000e+00
3.489563e+03,0.000000e+00
3.500169e+03,0.000000e+00