File: RAMAN_data/13042023_r1/blue fibre6.CSV
9.931763e+01,0.000000e+00
1.108884e+02,0.000000e+00
1.224592e+02,0.000000e+00
1.340300e+02,0.000000e+00
1.456008e+02,0.000000e+00
1.571716e+02,0.000000e+00
1.687424e+02,0.000000e+00
1.803132e+02,0.000000e+00
1.918840e+02,0.000000e+00
2.034548e+02,8.398667e+03
2.150256e+02,8.327139e+03
2.265964e+02,8.247928e+03
2.381673e+02,8.216091e+03
2.497381e+02,8.168162e+03
2.613088e+02,8.056942e+03
2.728796e+02,7.994963e+03
2.844504e+02,7.890161e+03
2.960212e+02,7.840400e+03
3.075920e+02,7.756375e+03
3.191628e+02,7.676363e+03
3.307336e+02,7.618406e+03
3.423044e+02,7.532441e+03
3.538752e+02,7.455711e+03
3.654461e+02,7.356208e+03
3.770169e+02,7.323170e+03
3.885877e+02,7.250605e+03
4.001585e+02,7.152939e+03
4.117293e+02,7.063009e+03
4.233001e+02,7.010312e+03
4.348709e+02,6.941653e+03
4.464417e+02,6.870705e+03
4.580125e+02,6.801985e+03
4.695833e+02,6.696839e+03
4.811541e+02,6.659670e+03
4.927249e+02,6.621614e+03
5.042957e+02,6.532444e+03
5.158665e+02,6.497388e+03
5.274373e+02,6.402472e+03
5.390081e+02,6.320271e+03
5.505789e+02,6.251748e+03
5.621497e+02,6.209389e+03
5.737205e+02,6.136063e+03
5.852913e+02,6.079704e+03
5.968621e+02,6.012547e+03
6.084329e+02,5.987571e+03
6.200037e+02,5.913057e+03
6.315745e+02,5.843105e+03
6.431453e+02,5.789774e+03
6.547161e+02,5.743318e+03
6.662869e+02,5.687357e+03
6.778577e+02,5.624276e+03
6.894285e+02,5.565356e+03
7.009993e+02,5.526616e+03
7.125701e+02,5.472417e+03
7.241409e+02,5.467017e+03
7.357117e+02,5.389920e+03
7.472825e+02,5.323093e+03
7.588533e+02,5.292705e+03
7.704241e+02,5.241417e+03
7.819949e+02,5.215451e+03
7.935657e+02,5.170589e+03
8.051365e+02,5.107970e+03
8.167073e+02,5.049374e+03
8.282781e+02,4.994998e+03
8.398489e+02,4.972006e+03
8.514197e+02,4.939807e+03
8.629905e+02,4.873125e+03
8.745613e+02,4.822131e+03
8.861321e+02,4.813244e+03
8.977029e+02,4.759126e+03
9.092737e+02,4.715764e+03
9.208445e+02,4.668250e+03
9.324153e+02,4.627819e+03
9.439861e+02,4.586966e+03
9.555569e+02,4.551049e+03
9.671277e+02,4.518592e+03
9.786985e+02,4.463451e+03
9.902693e+02,4.442047e+03
1.001840e+03,4.401226e+03
1.013411e+03,4.337690e+03
1.024982e+03,4.333084e+03
1.036552e+03,4.283426e+03
1.048123e+03,4.242443e+03
1.059694e+03,4.217318e+03
1.071265e+03,4.171157e+03
1.082836e+03,4.139071e+03
1.094406e+03,4.117201e+03
1.105977e+03,4.086584e+03
1.117548e+03,4.058828e+03
1.129119e+03,4.003184e+03
1.140690e+03,3.981022e+03
1.152261e+03,3.955951e+03
1.163831e+03,3.891383e+03
1.175402e+03,3.849110e+03
1.186973e+03,3.814128e+03
1.198544e+03,3.794885e+03
1.210115e+03,3.763896e+03
1.221685e+03,3.720522e+03
1.233256e+03,3.694235e+03
1.244827e+03,3.651553e+03
1.256398e+03,3.615288e+03
1.267969e+03,3.586121e+03
1.279539e+03,3.581600e+03
1.291110e+03,3.549423e+03
1.302681e+03,3.502542e+03
1.314252e+03,3.488030e+03
1.325823e+03,3.453591e+03
1.337393e+03,3.443358e+03
1.348964e+03,3.407052e+03
1.360535e+03,3.343917e+03
1.372106e+03,3.337565e+03
1.383677e+03,3.308485e+03
1.395247e+03,3.263161e+03
1.406818e+03,3.233081e+03
1.418389e+03,3.197936e+03
1.429960e+03,3.166771e+03
1.441531e+03,3.156100e+03
1.453101e+03,3.093727e+03
1.464672e+03,3.067816e+03
1.476243e+03,3.079036e+03
1.487814e+03,3.025622e+03
1.499385e+03,2.987406e+03
1.510955e+03,2.950875e+03
1.522526e+03,2.929300e+03
1.534097e+03,2.912079e+03
1.545668e+03,2.868378e+03
1.557239e+03,2.856063e+03
1.568809e+03,2.832630e+03
1.580380e+03,2.807263e+03
1.591951e+03,2.787411e+03
1.603522e+03,2.757329e+03
1.615093e+03,2.717979e+03
1.626663e+03,2.688187e+03
1.638234e+03,2.663477e+03
1.649805e+03,2.642172e+03
1.661376e+03,2.594592e+03
1.672947e+03,2.582490e+03
1.684517e+03,2.548060e+03
1.696088e+03,2.505004e+03
1.707659e+03,2.508456e+03
1.719230e+03,2.469814e+03
1.730801e+03,2.436215e+03
1.742371e+03,2.409398e+03
1.753942e+03,2.405312e+03
1.765513e+03,2.374544e+03
1.777084e+03,2.351886e+03
1.788655e+03,2.324679e+03
1.800225e+03,2.281340e+03
1.811796e+03,2.253850e+03
1.823367e+03,2.241347e+03
1.834938e+03,2.220048e+03
1.846509e+03,2.180470e+03
1.858079e+03,2.155031e+03
1.869650e+03,2.140490e+03
1.881221e+03,2.120049e+03
1.892792e+03,2.101193e+03
1.904363e+03,2.052731e+03
1.915933e+03,2.028544e+03
1.927504e+03,2.037622e+03
1.939075e+03,1.999429e+03
1.950646e+03,1.953231e+03
1.962217e+03,1.935782e+03
1.973787e+03,1.926702e+03
1.985358e+03,1.900260e+03
1.996929e+03,1.868629e+03
2.008500e+03,1.846837e+03
2.020071e+03,1.828327e+03
2.031641e+03,1.795444e+03
2.043212e+03,1.773096e+03
2.054783e+03,1.751422e+03
2.066354e+03,1.718701e+03
2.077925e+03,1.707368e+03
2.089496e+03,1.687583e+03
2.101066e+03,1.676680e+03
2.112637e+03,1.642327e+03
2.124208e+03,1.636589e+03
2.135779e+03,1.614330e+03
2.147350e+03,1.591490e+03
2.158920e+03,1.564789e+03
2.170491e+03,1.553154e+03
2.182062e+03,1.509808e+03
2.193633e+03,1.495896e+03
2.205204e+03,1.486598e+03
2.216774e+03,1.461546e+03
2.228345e+03,1.436914e+03
2.239916e+03,1.427389e+03
2.251487e+03,1.407319e+03
2.263058e+03,1.370161e+03
2.274628e+03,1.336460e+03
2.286199e+03,1.337241e+03
2.297770e+03,1.327078e+03
2.309341e+03,1.307217e+03
2.320912e+03,1.298904e+03
2.332482e+03,1.264987e+03
2.344053e+03,1.262967e+03
2.355624e+03,1.242682e+03
2.367195e+03,1.225723e+03
2.378766e+03,1.196609e+03
2.390336e+03,1.187932e+03
2.401907e+03,1.163871e+03
2.413478e+03,1.169519e+03
2.425049e+03,1.146189e+03
2.436620e+03,1.125703e+03
2.448190e+03,1.123760e+03
2.459761e+03,1.107805e+03
2.471332e+03,1.093289e+03
2.482903e+03,1.076078e+03
2.494474e+03,1.063572e+03
2.506044e+03,1.064939e+03
2.517615e+03,1.039507e+03
2.529186e+03,1.023254e+03
2.540757e+03,1.008646e+03
2.552328e+03,1.024315e+03
2.563898e+03,9.961608e+02
2.575469e+03,9.929869e+02
2.587040e+03,9.740286e+02
2.598611e+03,9.667527e+02
2.610182e+03,9.501091e+02
2.621752e+03,9.426542e+02
2.633323e+03,9.380283e+02
2.644894e+03,9.121537e+02
2.656465e+03,9.271314e+02
2.668036e+03,9.083383e+02
2.679606e+03,9.052455e+02
2.691177e+03,8.845212e+02
2.702748e+03,8.848293e+02
2.714319e+03,8.755840e+02
2.725890e+03,8.743727e+02
2.737460e+03,8.527048e+02
2.749031e+03,8.470667e+02
2.760602e+03,8.506258e+02
2.772173e+03,8.290080e+02
2.783744e+03,8.104151e+02
2.795314e+03,8.441464e+02
2.806885e+03,7.984806e+02
2.818456e+03,8.152940e+02
2.830027e+03,7.976663e+02
2.841598e+03,7.829848e+02
2.853168e+03,7.898759e+02
2.864739e+03,7.828657e+02
2.876310e+03,8.043246e+02
2.887881e+03,8.003859e+02
2.899452e+03,7.976777e+02
2.911022e+03,7.886443e+02
2.922593e+03,7.905557e+02
2.934164e+03,7.619152e+02
2.945735e+03,7.676461e+02
2.957306e+03,7.903516e+02
2.968876e+03,7.459974e+02
2.980447e+03,7.311710e+02
2.992018e+03,7.267463e+02
3.003589e+03,7.284925e+02
3.015160e+03,7.405226e+02
3.026730e+03,7.006243e+02
3.038301e+03,7.137261e+02
3.049872e+03,7.270284e+02
3.061443e+03,7.114121e+02
3.073014e+03,7.322684e+02
3.084584e+03,7.072385e+02
3.096155e+03,7.212664e+02
3.107726e+03,6.939616e+02
3.119297e+03,7.223651e+02
3.130868e+03,7.154803e+02
3.142438e+03,7.376979e+02
3.154009e+03,7.229805e+02
3.165580e+03,7.046018e+02
3.177151e+03,7.057672e+02
3.188722e+03,7.537932e+02
3.200292e+03,7.615329e+02
3.211863e+03,0.000000e+00
3.223434e+03,0.000000e+00
3.235005e+03,0.000000e+00
3.246576e+03,0.000000e+00
3.258146e+03,0.000000e+00
3.269717e+03,0.000000e+00
3.281288e+03,0.000000e+00
3.292859e+03,0.000000e+00
3.304430e+03,0.000000e+00
3.316000e+03,0.000000e+00
3.327571e+03,0.000000e+00
3.339142e+03,0.000000e+00
3.350713e+03,0.000000e+00
3.362284e+03,0.000000e+00
3.373854e+03,0.000000e+00
3.385425e+03,0.000000e+00
3.396996e+03,0.000000e+00
3.408567e+03,0.000000e+00
3.420138e+03,0.000000e+00
3.431708e+03,0.000000e+00
3.443279e+03,0.000000e+00
3.454850e+03,0.000000e+00
3.466421e+03,0.000000e+00
3.477992e+03,0.000000e+00
3.489563e+03,0.000000e+00
3.500169e+03,0.000000e+00