File: RAMAN_data/13042023_r1/blue fibre3.CSV
9.931763e+01,0.000000e+00
1.108884e+02,0.000000e+00
1.224592e+02,0.000000e+00
1.340300e+02,0.000000e+00
1.456008e+02,0.000000e+00
1.571716e+02,0.000000e+00
1.687424e+02,0.000000e+00
1.803132e+02,0.000000e+00
1.918840e+02,0.000000e+00
2.034548e+02,1.052143e+04
2.150256e+02,1.055253e+04
2.265964e+02,1.059082e+04
2.381673e+02,1.068169e+04
2.497381e+02,1.073451e+04
2.613088e+02,1.077167e+04
2.728796e+02,1.075815e+04
2.844504e+02,1.076215e+04
2.960212e+02,1.074777e+04
3.075920e+02,1.071934e+04
3.191628e+02,1.071199e+04
3.307336e+02,1.073161e+04
3.423044e+02,1.067777e+04
3.538752e+02,1.055213e+04
3.654461e+02,1.049110e+04
3.770169e+02,1.045884e+04
3.885877e+02,1.033124e+04
4.001585e+02,1.023976e+04
4.117293e+02,1.014457e+04
4.233001e+02,1.006675e+04
4.348709e+02,9.997734e+03
4.464417e+02,9.922266e+03
4.580125e+02,9.812031e+03
4.695833e+02,9.746673e+03
4.811541e+02,9.653317e+03
4.927249e+02,9.614129e+03
5.042957e+02,9.496098e+03
5.158665e+02,9.443382e+03
5.274373e+02,9.349800e+03
5.390081e+02,9.257504e+03
5.505789e+02,9.193354e+03
5.621497e+02,9.159803e+03
5.737205e+02,9.072494e+03
5.852913e+02,8.957097e+03
5.968621e+02,8.937892e+03
6.084329e+02,8.883654e+03
6.200037e+02,8.782972e+03
6.315745e+02,8.728530e+03
6.431453e+02,8.657563e+03
6.547161e+02,8.578927e+03
6.662869e+02,8.520415e+03
6.778577e+02,8.430347e+03
6.894285e+02,8.392525e+03
7.009993e+02,8.343003e+03
7.125701e+02,8.271584e+03
7.241409e+02,8.214171e+03
7.357117e+02,8.150995e+03
7.472825e+02,8.105185e+03
7.588533e+02,8.021258e+03
7.704241e+02,7.943771e+03
7.819949e+02,7.905141e+03
7.935657e+02,7.867412e+03
8.051365e+02,7.774959e+03
8.167073e+02,7.710049e+03
8.282781e+02,7.693852e+03
8.398489e+02,7.638034e+03
8.514197e+02,7.555263e+03
8.629905e+02,7.516998e+03
8.745613e+02,7.442833e+03
8.861321e+02,7.408550e+03
8.977029e+02,7.368778e+03
9.092737e+02,7.293596e+03
9.208445e+02,7.221433e+03
9.324153e+02,7.182702e+03
9.439861e+02,7.116921e+03
9.555569e+02,7.068000e+03
9.671277e+02,7.053409e+03
9.786985e+02,6.980007e+03
9.902693e+02,6.901518e+03
1.001840e+03,6.870417e+03
1.013411e+03,6.822885e+03
1.024982e+03,6.767926e+03
1.036552e+03,6.710319e+03
1.048123e+03,6.659658e+03
1.059694e+03,6.626473e+03
1.071265e+03,6.595075e+03
1.082836e+03,6.565728e+03
1.094406e+03,6.504420e+03
1.105977e+03,6.481509e+03
1.117548e+03,6.417685e+03
1.129119e+03,6.382974e+03
1.140690e+03,6.310556e+03
1.152261e+03,6.304047e+03
1.163831e+03,6.229638e+03
1.175402e+03,6.179745e+03
1.186973e+03,6.134800e+03
1.198544e+03,6.104134e+03
1.210115e+03,6.081788e+03
1.221685e+03,5.996244e+03
1.233256e+03,5.938333e+03
1.244827e+03,5.925589e+03
1.256398e+03,5.864514e+03
1.267969e+03,5.815610e+03
1.279539e+03,5.808424e+03
1.291110e+03,5.766628e+03
1.302681e+03,5.711650e+03
1.314252e+03,5.663523e+03
1.325823e+03,5.627723e+03
1.337393e+03,5.619823e+03
1.348964e+03,5.573007e+03
1.360535e+03,5.512627e+03
1.372106e+03,5.490632e+03
1.383677e+03,5.445042e+03
1.395247e+03,5.384155e+03
1.406818e+03,5.350450e+03
1.418389e+03,5.308018e+03
1.429960e+03,5.277195e+03
1.441531e+03,5.188538e+03
1.453101e+03,5.167073e+03
1.464672e+03,5.150728e+03
1.476243e+03,5.092071e+03
1.487814e+03,5.063775e+03
1.499385e+03,4.984616e+03
1.510955e+03,4.972468e+03
1.522526e+03,4.930935e+03
1.534097e+03,4.889268e+03
1.545668e+03,4.836285e+03
1.557239e+03,4.825772e+03
1.568809e+03,4.806769e+03
1.580380e+03,4.769800e+03
1.591951e+03,4.725833e+03
1.603522e+03,4.668622e+03
1.615093e+03,4.619682e+03
1.626663e+03,4.580557e+03
1.638234e+03,4.539901e+03
1.649805e+03,4.488640e+03
1.661376e+03,4.449585e+03
1.672947e+03,4.411665e+03
1.684517e+03,4.368595e+03
1.696088e+03,4.355474e+03
1.707659e+03,4.299111e+03
1.719230e+03,4.272537e+03
1.730801e+03,4.221042e+03
1.742371e+03,4.185116e+03
1.753942e+03,4.147931e+03
1.765513e+03,4.094556e+03
1.777084e+03,4.051463e+03
1.788655e+03,4.016558e+03
1.800225e+03,4.008078e+03
1.811796e+03,3.961239e+03
1.823367e+03,3.885949e+03
1.834938e+03,3.896280e+03
1.846509e+03,3.838230e+03
1.858079e+03,3.822728e+03
1.869650e+03,3.745021e+03
1.881221e+03,3.723922e+03
1.892792e+03,3.683526e+03
1.904363e+03,3.643659e+03
1.915933e+03,3.589573e+03
1.927504e+03,3.572986e+03
1.939075e+03,3.557062e+03
1.950646e+03,3.512000e+03
1.962217e+03,3.472860e+03
1.973787e+03,3.426829e+03
1.985358e+03,3.394624e+03
1.996929e+03,3.404393e+03
2.008500e+03,3.315708e+03
2.020071e+03,3.282173e+03
2.031641e+03,3.250007e+03
2.043212e+03,3.224944e+03
2.054783e+03,3.202926e+03
2.066354e+03,3.151288e+03
2.077925e+03,3.119548e+03
2.089496e+03,3.088238e+03
2.101066e+03,3.039707e+03
2.112637e+03,2.998250e+03
2.124208e+03,2.987728e+03
2.135779e+03,2.944257e+03
2.147350e+03,2.892189e+03
2.158920e+03,2.887671e+03
2.170491e+03,2.861849e+03
2.182062e+03,2.815440e+03
2.193633e+03,2.765192e+03
2.205204e+03,2.764024e+03
2.216774e+03,2.737175e+03
2.228345e+03,2.686703e+03
2.239916e+03,2.635755e+03
2.251487e+03,2.633243e+03
2.263058e+03,2.617312e+03
2.274628e+03,2.560698e+03
2.286199e+03,2.511977e+03
2.297770e+03,2.489538e+03
2.309341e+03,2.457634e+03
2.320912e+03,2.438712e+03
2.332482e+03,2.418419e+03
2.344053e+03,2.386392e+03
2.355624e+03,2.354190e+03
2.367195e+03,2.307077e+03
2.378766e+03,2.312207e+03
2.390336e+03,2.299264e+03
2.401907e+03,2.243994e+03
2.413478e+03,2.231355e+03
2.425049e+03,2.191281e+03
2.436620e+03,2.168562e+03
2.448190e+03,2.142703e+03
2.459761e+03,2.120429e+03
2.471332e+03,2.110442e+03
2.482903e+03,2.092038e+03
2.494474e+03,2.076242e+03
2.506044e+03,2.017389e+03
2.517615e+03,2.034212e+03
2.529186e+03,2.040495e+03
2.540757e+03,1.978592e+03
2.552328e+03,1.969047e+03
2.563898e+03,1.959618e+03
2.575469e+03,1.943498e+03
2.587040e+03,1.896455e+03
2.598611e+03,1.899015e+03
2.610182e+03,1.875558e+03
2.621752e+03,1.866030e+03
2.633323e+03,1.832902e+03
2.644894e+03,1.805198e+03
2.656465e+03,1.821922e+03
2.668036e+03,1.817894e+03
2.679606e+03,1.760133e+03
2.691177e+03,1.763076e+03
2.702748e+03,1.736010e+03
2.714319e+03,1.716073e+03
2.725890e+03,1.696350e+03
2.737460e+03,1.699524e+03
2.749031e+03,1.668350e+03
2.760602e+03,1.661034e+03
2.772173e+03,1.674508e+03
2.783744e+03,1.647619e+03
2.795314e+03,1.610669e+03
2.806885e+03,1.625346e+03
2.818456e+03,1.588973e+03
2.830027e+03,1.612681e+03
2.841598e+03,1.598811e+03
2.853168e+03,1.575181e+03
2.864739e+03,1.601330e+03
2.876310e+03,1.561891e+03
2.887881e+03,1.587567e+03
2.899452e+03,1.580023e+03
2.911022e+03,1.525036e+03
2.922593e+03,1.514162e+03
2.934164e+03,1.505894e+03
2.945735e+03,1.489812e+03
2.957306e+03,1.521073e+03
2.968876e+03,1.472381e+03
2.980447e+03,1.437086e+03
2.992018e+03,1.458349e+03
3.003589e+03,1.430782e+03
3.015160e+03,1.437539e+03
3.026730e+03,1.431814e+03
3.038301e+03,1.405254e+03
3.049872e+03,1.427778e+03
3.061443e+03,1.378684e+03
3.073014e+03,1.394213e+03
3.084584e+03,1.421979e+03
3.096155e+03,1.404188e+03
3.107726e+03,1.428867e+03
3.119297e+03,1.407952e+03
3.130868e+03,1.341501e+03
3.142438e+03,1.420102e+03
3.154009e+03,1.391152e+03
3.165580e+03,1.425805e+03
3.177151e+03,1.385645e+03
3.188722e+03,1.363499e+03
3.200292e+03,1.464813e+03
3.211863e+03,0.000000e+00
3.223434e+03,0.000000e+00
3.235005e+03,0.000000e+00
3.246576e+03,0.000000e+00
3.258146e+03,0.000000e+00
3.269717e+03,0.000000e+00
3.281288e+03,0.000000e+00
3.292859e+03,0.000000e+00
3.304430e+03,0.000000e+00
3.316000e+03,0.000000e+00
3.327571e+03,0.000000e+00
3.339142e+03,0.000000e+00
3.350713e+03,0.000000e+00
3.362284e+03,0.000000e+00
3.373854e+03,0.000000e+00
3.385425e+03,0.000000e+00
3.396996e+03,0.000000e+00
3.408567e+03,0.000000e+00
3.420138e+03,0.000000e+00
3.431708e+03,0.000000e+00
3.443279e+03,0.000000e+00
3.454850e+03,0.000000e+00
3.466421e+03,0.000000e+00
3.477992e+03,0.000000e+00
3.489563e+03,0.000000e+00
3.500169e+03,0.000000e+00