File: RAMAN_data/13042023_r1/blue fibre4.CSV
9.931763e+01,0.000000e+00
1.108884e+02,0.000000e+00
1.224592e+02,0.000000e+00
1.340300e+02,0.000000e+00
1.456008e+02,0.000000e+00
1.571716e+02,0.000000e+00
1.687424e+02,0.000000e+00
1.803132e+02,0.000000e+00
1.918840e+02,0.000000e+00
2.034548e+02,2.796995e+03
2.150256e+02,2.774870e+03
2.265964e+02,2.764228e+03
2.381673e+02,2.745336e+03
2.497381e+02,2.710301e+03
2.613088e+02,2.686810e+03
2.728796e+02,2.672128e+03
2.844504e+02,2.650522e+03
2.960212e+02,2.619549e+03
3.075920e+02,2.586079e+03
3.191628e+02,2.568558e+03
3.307336e+02,2.561439e+03
3.423044e+02,2.539139e+03
3.538752e+02,2.508671e+03
3.654461e+02,2.480860e+03
3.770169e+02,2.477502e+03
3.885877e+02,2.428807e+03
4.001585e+02,2.389334e+03
4.117293e+02,2.380305e+03
4.233001e+02,2.363744e+03
4.348709e+02,2.346218e+03
4.464417e+02,2.315961e+03
4.580125e+02,2.301444e+03
4.695833e+02,2.261601e+03
4.811541e+02,2.257145e+03
4.927249e+02,2.227603e+03
5.042957e+02,2.198607e+03
5.158665e+02,2.190456e+03
5.274373e+02,2.163373e+03
5.390081e+02,2.129610e+03
5.505789e+02,2.130150e+03
5.621497e+02,2.114500e+03
5.737205e+02,2.101994e+03
5.852913e+02,2.071633e+03
5.968621e+02,2.054822e+03
6.084329e+02,2.046097e+03
6.200037e+02,2.013693e+03
6.315745e+02,2.001902e+03
6.431453e+02,1.977539e+03
6.547161e+02,1.972126e+03
6.662869e+02,1.940138e+03
6.778577e+02,1.949792e+03
6.894285e+02,1.912662e+03
7.009993e+02,1.908418e+03
7.125701e+02,1.897985e+03
7.241409e+02,1.877119e+03
7.357117e+02,1.852809e+03
7.472825e+02,1.865437e+03
7.588533e+02,1.835144e+03
7.704241e+02,1.828191e+03
7.819949e+02,1.806083e+03
7.935657e+02,1.802349e+03
8.051365e+02,1.775439e+03
8.167073e+02,1.765159e+03
8.282781e+02,1.748297e+03
8.398489e+02,1.736274e+03
8.514197e+02,1.727389e+03
8.629905e+02,1.717151e+03
8.745613e+02,1.707991e+03
8.861321e+02,1.716335e+03
8.977029e+02,1.690591e+03
9.092737e+02,1.668932e+03
9.208445e+02,1.649898e+03
9.324153e+02,1.640884e+03
9.439861e+02,1.632166e+03
9.555569e+02,1.617760e+03
9.671277e+02,1.609255e+03
9.786985e+02,1.605875e+03
9.902693e+02,1.587090e+03
1.001840e+03,1.580853e+03
1.013411e+03,1.560688e+03
1.024982e+03,1.552300e+03
1.036552e+03,1.551075e+03
1.048123e+03,1.527603e+03
1.059694e+03,1.520396e+03
1.071265e+03,1.522459e+03
1.082836e+03,1.514214e+03
1.094406e+03,1.538096e+03
1.105977e+03,1.500940e+03
1.117548e+03,1.500154e+03
1.129119e+03,1.482160e+03
1.140690e+03,1.465166e+03
1.152261e+03,1.466860e+03
1.163831e+03,1.430129e+03
1.175402e+03,1.418128e+03
1.186973e+03,1.412863e+03
1.198544e+03,1.407068e+03
1.210115e+03,1.394910e+03
1.221685e+03,1.388320e+03
1.233256e+03,1.365234e+03
1.244827e+03,1.366912e+03
1.256398e+03,1.364804e+03
1.267969e+03,1.346949e+03
1.279539e+03,1.366235e+03
1.291110e+03,1.342976e+03
1.302681e+03,1.326165e+03
1.314252e+03,1.317641e+03
1.325823e+03,1.311332e+03
1.337393e+03,1.310769e+03
1.348964e+03,1.295323e+03
1.360535e+03,1.289695e+03
1.372106e+03,1.280123e+03
1.383677e+03,1.271307e+03
1.395247e+03,1.242134e+03
1.406818e+03,1.241171e+03
1.418389e+03,1.234023e+03
1.429960e+03,1.214228e+03
1.441531e+03,1.200572e+03
1.453101e+03,1.198073e+03
1.464672e+03,1.198835e+03
1.476243e+03,1.175895e+03
1.487814e+03,1.159652e+03
1.499385e+03,1.152638e+03
1.510955e+03,1.147115e+03
1.522526e+03,1.135518e+03
1.534097e+03,1.119531e+03
1.545668e+03,1.106663e+03
1.557239e+03,1.115204e+03
1.568809e+03,1.113113e+03
1.580380e+03,1.115947e+03
1.591951e+03,1.094529e+03
1.603522e+03,1.088347e+03
1.615093e+03,1.076214e+03
1.626663e+03,1.066666e+03
1.638234e+03,1.047689e+03
1.649805e+03,1.038291e+03
1.661376e+03,1.038755e+03
1.672947e+03,1.022133e+03
1.684517e+03,1.009370e+03
1.696088e+03,1.009590e+03
1.707659e+03,9.916542e+02
1.719230e+03,9.830560e+02
1.730801e+03,9.917131e+02
1.742371e+03,9.675247e+02
1.753942e+03,9.774583e+02
1.765513e+03,9.657445e+02
1.777084e+03,9.477784e+02
1.788655e+03,9.351037e+02
1.800225e+03,9.263713e+02
1.811796e+03,9.219947e+02
1.823367e+03,9.031570e+02
1.834938e+03,9.026419e+02
1.846509e+03,8.951005e+02
1.858079e+03,8.813976e+02
1.869650e+03,8.731271e+02
1.881221e+03,8.573578e+02
1.892792e+03,8.524699e+02
1.904363e+03,8.516067e+02
1.915933e+03,8.367245e+02
1.927504e+03,8.375579e+02
1.939075e+03,8.185303e+02
1.950646e+03,8.299152e+02
1.962217e+03,8.102631e+02
1.973787e+03,8.048395e+02
1.985358e+03,7.940081e+02
1.996929e+03,7.808861e+02
2.008500e+03,7.884678e+02
2.020071e+03,7.742759e+02
2.031641e+03,7.551385e+02
2.043212e+03,7.460201e+02
2.054783e+03,7.589300e+02
2.066354e+03,7.378636e+02
2.077925e+03,7.328087e+02
2.089496e+03,7.330968e+02
2.101066e+03,7.109879e+02
2.112637e+03,7.070178e+02
2.124208e+03,7.097029e+02
2.135779e+03,6.926963e+02
2.147350e+03,6.792805e+02
2.158920e+03,6.730953e+02
2.170491e+03,6.730934e+02
2.182062e+03,6.583634e+02
2.193633e+03,6.615837e+02
2.205204e+03,6.521161e+02
2.216774e+03,6.551111e+02
2.228345e+03,6.356046e+02
2.239916e+03,6.221281e+02
2.251487e+03,6.222538e+02
2.263058e+03,6.219489e+02
2.274628e+03,5.935624e+02
2.286199e+03,5.956487e+02
2.297770e+03,5.880911e+02
2.309341e+03,5.853290e+02
2.320912e+03,5.832987e+02
2.332482e+03,5.700911e+02
2.344053e+03,5.681701e+02
2.355624e+03,5.580828e+02
2.367195e+03,5.512338e+02
2.378766e+03,5.448702e+02
2.390336e+03,5.405857e+02
2.401907e+03,5.351287e+02
2.413478e+03,5.372322e+02
2.425049e+03,5.331800e+02
2.436620e+03,5.276701e+02
2.448190e+03,5.193883e+02
2.459761e+03,5.001648e+02
2.471332e+03,5.090187e+02
2.482903e+03,4.982252e+02
2.494474e+03,5.078413e+02
2.506044e+03,4.945532e+02
2.517615e+03,4.985443e+02
2.529186e+03,4.791199e+02
2.540757e+03,4.847343e+02
2.552328e+03,4.923003e+02
2.563898e+03,4.858724e+02
2.575469e+03,4.860499e+02
2.587040e+03,4.648599e+02
2.598611e+03,4.591546e+02
2.610182e+03,4.625916e+02
2.621752e+03,4.611043e+02
2.633323e+03,4.412684e+02
2.644894e+03,4.588784e+02
2.656465e+03,4.505089e+02
2.668036e+03,4.396748e+02
2.679606e+03,4.333318e+02
2.691177e+03,4.512429e+02
2.702748e+03,4.165416e+02
2.714319e+03,4.250868e+02
2.725890e+03,4.350258e+02
2.737460e+03,4.252702e+02
2.749031e+03,4.297684e+02
2.760602e+03,4.231777e+02
2.772173e+03,4.109849e+02
2.783744e+03,4.119029e+02
2.795314e+03,4.086901e+02
2.806885e+03,4.116819e+02
2.818456e+03,4.096911e+02
2.830027e+03,4.187222e+02
2.841598e+03,3.980772e+02
2.853168e+03,4.136284e+02
2.864739e+03,4.134350e+02
2.876310e+03,4.191910e+02
2.887881e+03,4.382203e+02
2.899452e+03,4.211276e+02
2.911022e+03,4.232266e+02
2.922593e+03,4.025103e+02
2.934164e+03,3.942160e+02
2.945735e+03,4.029708e+02
2.957306e+03,4.395000e+02
2.968876e+03,3.862435e+02
2.980447e+03,3.784308e+02
2.992018e+03,3.845197e+02
3.003589e+03,3.489456e+02
3.015160e+03,3.775739e+02
3.026730e+03,3.618481e+02
3.038301e+03,3.486505e+02
3.049872e+03,3.824934e+02
3.061443e+03,3.735074e+02
3.073014e+03,3.819589e+02
3.084584e+03,3.322860e+02
3.096155e+03,3.691399e+02
3.107726e+03,3.683075e+02
3.119297e+03,3.686383e+02
3.130868e+03,3.959356e+02
3.142438e+03,3.776395e+02
3.154009e+03,3.479611e+02
3.165580e+03,3.755711e+02
3.177151e+03,3.747391e+02
3.188722e+03,3.533024e+02
3.200292e+03,3.960041e+02
3.211863e+03,0.000000e+00
3.223434e+03,0.000000e+00
3.235005e+03,0.000000e+00
3.246576e+03,0.000000e+00
3.258146e+03,0.000000e+00
3.269717e+03,0.000000e+00
3.281288e+03,0.000000e+00
3.292859e+03,0.000000e+00
3.304430e+03,0.000000e+00
3.316000e+03,0.000000e+00
3.327571e+03,0.000000e+00
3.339142e+03,0.000000e+00
3.350713e+03,0.000000e+00
3.362284e+03,0.000000e+00
3.373854e+03,0.000000e+00
3.385425e+03,0.000000e+00
3.396996e+03,0.000000e+00
3.408567e+03,0.000000e+00
3.420138e+03,0.000000e+00
3.431708e+03,0.000000e+00
3.443279e+03,0.000000e+00
3.454850e+03,0.000000e+00
3.466421e+03,0.000000e+00
3.477992e+03,0.000000e+00
3.489563e+03,0.000000e+00
3.500169e+03,0.000000e+00