File: RAMAN_data/13042023_r1/blue fibre1.CSV
9.931763e+01,0.000000e+00
1.108884e+02,0.000000e+00
1.224592e+02,0.000000e+00
1.340300e+02,0.000000e+00
1.456008e+02,0.000000e+00
1.571716e+02,0.000000e+00
1.687424e+02,0.000000e+00
1.803132e+02,0.000000e+00
1.918840e+02,0.000000e+00
2.034548e+02,1.014925e+04
2.150256e+02,1.011169e+04
2.265964e+02,1.013021e+04
2.381673e+02,1.017497e+04
2.497381e+02,1.017827e+04
2.613088e+02,1.016720e+04
2.728796e+02,1.019108e+04
2.844504e+02,1.023554e+04
2.960212e+02,1.022699e+04
3.075920e+02,1.022247e+04
3.191628e+02,1.024440e+04
3.307336e+02,1.013440e+04
3.423044e+02,1.003999e+04
3.538752e+02,1.007422e+04
3.654461e+02,1.001861e+04
3.770169e+02,9.967294e+03
3.885877e+02,9.927101e+03
4.001585e+02,9.826010e+03
4.117293e+02,9.765626e+03
4.233001e+02,9.686200e+03
4.348709e+02,9.617314e+03
4.464417e+02,9.528501e+03
4.580125e+02,9.452809e+03
4.695833e+02,9.415271e+03
4.811541e+02,9.331551e+03
4.927249e+02,9.278891e+03
5.042957e+02,9.203697e+03
5.158665e+02,9.180920e+03
5.274373e+02,9.083109e+03
5.390081e+02,9.020045e+03
5.505789e+02,8.952149e+03
5.621497e+02,8.901360e+03
5.737205e+02,8.847366e+03
5.852913e+02,8.760959e+03
5.968621e+02,8.714095e+03
6.084329e+02,8.647989e+03
6.200037e+02,8.592056e+03
6.315745e+02,8.500698e+03
6.431453e+02,8.449119e+03
6.547161e+02,8.405603e+03
6.662869e+02,8.325841e+03
6.778577e+02,8.288184e+03
6.894285e+02,8.239373e+03
7.009993e+02,8.152300e+03
7.125701e+02,8.118452e+03
7.241409e+02,8.030294e+03
7.357117e+02,8.026273e+03
7.472825e+02,7.979825e+03
7.588533e+02,7.863930e+03
7.704241e+02,7.848946e+03
7.819949e+02,7.800753e+03
7.935657e+02,7.748663e+03
8.051365e+02,7.678047e+03
8.167073e+02,7.622315e+03
8.282781e+02,7.537127e+03
8.398489e+02,7.515250e+03
8.514197e+02,7.471780e+03
8.629905e+02,7.430501e+03
8.745613e+02,7.357796e+03
8.861321e+02,7.317170e+03
8.977029e+02,7.257390e+03
9.092737e+02,7.198792e+03
9.208445e+02,7.104893e+03
9.324153e+02,7.089865e+03
9.439861e+02,7.059938e+03
9.555569e+02,6.974854e+03
9.671277e+02,6.964302e+03
9.786985e+02,6.904275e+03
9.902693e+02,6.843773e+03
1.001840e+03,6.768666e+03
1.013411e+03,6.759528e+03
1.024982e+03,6.745787e+03
1.036552e+03,6.675232e+03
1.048123e+03,6.628968e+03
1.059694e+03,6.604364e+03
1.071265e+03,6.607288e+03
1.082836e+03,6.555937e+03
1.094406e+03,6.481036e+03
1.105977e+03,6.436744e+03
1.117548e+03,6.410594e+03
1.129119e+03,6.347495e+03
1.140690e+03,6.316547e+03
1.152261e+03,6.358609e+03
1.163831e+03,6.372894e+03
1.175402e+03,6.281836e+03
1.186973e+03,6.155222e+03
1.198544e+03,6.104888e+03
1.210115e+03,6.075957e+03
1.221685e+03,6.028456e+03
1.233256e+03,5.938412e+03
1.244827e+03,5.936526e+03
1.256398e+03,5.869694e+03
1.267969e+03,5.805516e+03
1.279539e+03,5.798347e+03
1.291110e+03,5.772019e+03
1.302681e+03,5.742318e+03
1.314252e+03,5.736665e+03
1.325823e+03,5.731554e+03
1.337393e+03,5.679582e+03
1.348964e+03,5.589193e+03
1.360535e+03,5.531487e+03
1.372106e+03,5.476631e+03
1.383677e+03,5.438458e+03
1.395247e+03,5.363888e+03
1.406818e+03,5.318019e+03
1.418389e+03,5.283221e+03
1.429960e+03,5.243619e+03
1.441531e+03,5.216052e+03
1.453101e+03,5.154873e+03
1.464672e+03,5.131867e+03
1.476243e+03,5.052920e+03
1.487814e+03,5.024702e+03
1.499385e+03,4.980954e+03
1.510955e+03,4.949746e+03
1.522526e+03,4.887647e+03
1.534097e+03,4.850031e+03
1.545668e+03,4.824483e+03
1.557239e+03,4.825077e+03
1.568809e+03,4.786411e+03
1.580380e+03,4.766579e+03
1.591951e+03,4.692764e+03
1.603522e+03,4.678986e+03
1.615093e+03,4.630392e+03
1.626663e+03,4.551419e+03
1.638234e+03,4.499788e+03
1.649805e+03,4.482922e+03
1.661376e+03,4.410546e+03
1.672947e+03,4.372622e+03
1.684517e+03,4.320778e+03
1.696088e+03,4.292777e+03
1.707659e+03,4.272417e+03
1.719230e+03,4.215703e+03
1.730801e+03,4.179142e+03
1.742371e+03,4.151641e+03
1.753942e+03,4.109538e+03
1.765513e+03,4.071905e+03
1.777084e+03,4.020732e+03
1.788655e+03,3.995063e+03
1.800225e+03,3.957894e+03
1.811796e+03,3.929180e+03
1.823367e+03,3.876078e+03
1.834938e+03,3.812974e+03
1.846509e+03,3.810046e+03
1.858079e+03,3.746998e+03
1.869650e+03,3.734438e+03
1.881221e+03,3.670540e+03
1.892792e+03,3.665172e+03
1.904363e+03,3.625500e+03
1.915933e+03,3.561192e+03
1.927504e+03,3.541243e+03
1.939075e+03,3.504281e+03
1.950646e+03,3.451597e+03
1.962217e+03,3.433737e+03
1.973787e+03,3.391719e+03
1.985358e+03,3.350283e+03
1.996929e+03,3.319482e+03
2.008500e+03,3.280885e+03
2.020071e+03,3.223990e+03
2.031641e+03,3.213559e+03
2.043212e+03,3.182644e+03
2.054783e+03,3.116973e+03
2.066354e+03,3.120401e+03
2.077925e+03,3.065283e+03
2.089496e+03,3.036123e+03
2.101066e+03,3.000121e+03
2.112637e+03,2.946402e+03
2.124208e+03,2.925495e+03
2.135779e+03,2.911591e+03
2.147350e+03,2.831359e+03
2.158920e+03,2.820398e+03
2.170491e+03,2.754265e+03
2.182062e+03,2.743852e+03
2.193633e+03,2.739976e+03
2.205204e+03,2.732426e+03
2.216774e+03,2.659618e+03
2.228345e+03,2.611943e+03
2.239916e+03,2.582984e+03
2.251487e+03,2.566238e+03
2.263058e+03,2.531470e+03
2.274628e+03,2.473176e+03
2.286199e+03,2.443728e+03
2.297770e+03,2.441925e+03
2.309341e+03,2.401225e+03
2.320912e+03,2.370163e+03
2.332482e+03,2.333395e+03
2.344053e+03,2.337251e+03
2.355624e+03,2.282073e+03
2.367195e+03,2.250459e+03
2.378766e+03,2.239537e+03
2.390336e+03,2.213513e+03
2.401907e+03,2.180830e+03
2.413478e+03,2.162129e+03
2.425049e+03,2.155932e+03
2.436620e+03,2.108141e+03
2.448190e+03,2.077312e+03
2.459761e+03,2.042838e+03
2.471332e+03,2.024789e+03
2.482903e+03,2.027567e+03
2.494474e+03,1.983737e+03
2.506044e+03,1.957727e+03
2.517615e+03,1.942013e+03
2.529186e+03,1.916858e+03
2.540757e+03,1.918379e+03
2.552328e+03,1.885587e+03
2.563898e+03,1.886936e+03
2.575469e+03,1.862430e+03
2.587040e+03,1.814983e+03
2.598611e+03,1.807854e+03
2.610182e+03,1.784468e+03
2.621752e+03,1.773740e+03
2.633323e+03,1.763874e+03
2.644894e+03,1.737798e+03
2.656465e+03,1.731541e+03
2.668036e+03,1.706577e+03
2.679606e+03,1.694911e+03
2.691177e+03,1.680356e+03
2.702748e+03,1.680125e+03
2.714319e+03,1.632455e+03
2.725890e+03,1.630609e+03
2.737460e+03,1.614363e+03
2.749031e+03,1.629092e+03
2.760602e+03,1.622162e+03
2.772173e+03,1.596326e+03
2.783744e+03,1.578060e+03
2.795314e+03,1.543939e+03
2.806885e+03,1.535595e+03
2.818456e+03,1.529913e+03
2.830027e+03,1.505161e+03
2.841598e+03,1.500355e+03
2.853168e+03,1.486677e+03
2.864739e+03,1.503060e+03
2.876310e+03,1.500248e+03
2.887881e+03,1.473906e+03
2.899452e+03,1.461776e+03
2.911022e+03,1.466908e+03
2.922593e+03,1.451565e+03
2.934164e+03,1.441528e+03
2.945735e+03,1.417627e+03
2.957306e+03,1.428673e+03
2.968876e+03,1.407792e+03
2.980447e+03,1.412553e+03
2.992018e+03,1.362555e+03
3.003589e+03,1.366931e+03
3.015160e+03,1.333692e+03
3.026730e+03,1.319988e+03
3.038301e+03,1.349624e+03
3.049872e+03,1.353111e+03
3.061443e+03,1.307193e+03
3.073014e+03,1.332098e+03
3.084584e+03,1.267672e+03
3.096155e+03,1.303889e+03
3.107726e+03,1.286847e+03
3.119297e+03,1.307107e+03
3.130868e+03,1.347376e+03
3.142438e+03,1.329345e+03
3.154009e+03,1.330790e+03
3.165580e+03,1.341008e+03
3.177151e+03,1.314731e+03
3.188722e+03,1.334027e+03
3.200292e+03,1.348809e+03
3.211863e+03,0.000000e+00
3.223434e+03,0.000000e+00
3.235005e+03,0.000000e+00
3.246576e+03,0.000000e+00
3.258146e+03,0.000000e+00
3.269717e+03,0.000000e+00
3.281288e+03,0.000000e+00
3.292859e+03,0.000000e+00
3.304430e+03,0.000000e+00
3.316000e+03,0.000000e+00
3.327571e+03,0.000000e+00
3.339142e+03,0.000000e+00
3.350713e+03,0.000000e+00
3.362284e+03,0.000000e+00
3.373854e+03,0.000000e+00
3.385425e+03,0.000000e+00
3.396996e+03,0.000000e+00
3.408567e+03,0.000000e+00
3.420138e+03,0.000000e+00
3.431708e+03,0.000000e+00
3.443279e+03,0.000000e+00
3.454850e+03,0.000000e+00
3.466421e+03,0.000000e+00
3.477992e+03,0.000000e+00
3.489563e+03,0.000000e+00
3.500169e+03,0.000000e+00