File: RAMAN_data/13042023_r1/blue fibre13.CSV
9.931763e+01,0.000000e+00
1.108884e+02,0.000000e+00
1.224592e+02,0.000000e+00
1.340300e+02,0.000000e+00
1.456008e+02,0.000000e+00
1.571716e+02,0.000000e+00
1.687424e+02,0.000000e+00
1.803132e+02,0.000000e+00
1.918840e+02,0.000000e+00
2.034548e+02,1.052034e+04
2.150256e+02,1.057994e+04
2.265964e+02,1.068749e+04
2.381673e+02,1.083688e+04
2.497381e+02,1.092293e+04
2.613088e+02,1.102010e+04
2.728796e+02,1.114520e+04
2.844504e+02,1.128402e+04
2.960212e+02,1.139113e+04
3.075920e+02,1.148884e+04
3.191628e+02,1.160888e+04
3.307336e+02,1.175929e+04
3.423044e+02,1.189110e+04
3.538752e+02,1.203903e+04
3.654461e+02,1.215143e+04
3.770169e+02,1.231209e+04
3.885877e+02,1.246715e+04
4.001585e+02,1.259571e+04
4.117293e+02,1.274472e+04
4.233001e+02,1.288676e+04
4.348709e+02,1.304558e+04
4.464417e+02,1.321787e+04
4.580125e+02,1.333318e+04
4.695833e+02,1.347626e+04
4.811541e+02,1.360236e+04
4.927249e+02,1.374528e+04
5.042957e+02,1.387435e+04
5.158665e+02,1.399864e+04
5.274373e+02,1.410163e+04
5.390081e+02,1.417050e+04
5.505789e+02,1.428684e+04
5.621497e+02,1.439771e+04
5.737205e+02,1.446703e+04
5.852913e+02,1.457644e+04
5.968621e+02,1.471511e+04
6.084329e+02,1.480400e+04
6.200037e+02,1.484453e+04
6.315745e+02,1.490820e+04
6.431453e+02,1.500872e+04
6.547161e+02,1.510748e+04
6.662869e+02,1.514652e+04
6.778577e+02,1.514802e+04
6.894285e+02,1.519513e+04
7.009993e+02,1.527333e+04
7.125701e+02,1.527581e+04
7.241409e+02,1.527056e+04
7.357117e+02,1.526930e+04
7.472825e+02,1.529960e+04
7.588533e+02,1.525382e+04
7.704241e+02,1.521191e+04
7.819949e+02,1.519989e+04
7.935657e+02,1.517511e+04
8.051365e+02,1.511129e+04
8.167073e+02,1.508447e+04
8.282781e+02,1.504107e+04
8.398489e+02,1.497962e+04
8.514197e+02,1.485256e+04
8.629905e+02,1.478422e+04
8.745613e+02,1.470286e+04
8.861321e+02,1.467148e+04
8.977029e+02,1.455250e+04
9.092737e+02,1.445627e+04
9.208445e+02,1.435686e+04
9.324153e+02,1.430501e+04
9.439861e+02,1.419716e+04
9.555569e+02,1.405368e+04
9.671277e+02,1.394430e+04
9.786985e+02,1.383164e+04
9.902693e+02,1.367584e+04
1.001840e+03,1.353603e+04
1.013411e+03,1.346525e+04
1.024982e+03,1.338008e+04
1.036552e+03,1.323509e+04
1.048123e+03,1.311863e+04
1.059694e+03,1.305507e+04
1.071265e+03,1.300558e+04
1.082836e+03,1.290236e+04
1.094406e+03,1.274735e+04
1.105977e+03,1.267960e+04
1.117548e+03,1.262586e+04
1.129119e+03,1.251258e+04
1.140690e+03,1.242165e+04
1.152261e+03,1.239153e+04
1.163831e+03,1.232244e+04
1.175402e+03,1.221976e+04
1.186973e+03,1.215668e+04
1.198544e+03,1.215996e+04
1.210115e+03,1.211086e+04
1.221685e+03,1.206958e+04
1.233256e+03,1.204761e+04
1.244827e+03,1.207964e+04
1.256398e+03,1.208948e+04
1.267969e+03,1.206765e+04
1.279539e+03,1.209201e+04
1.291110e+03,1.213696e+04
1.302681e+03,1.217891e+04
1.314252e+03,1.215091e+04
1.325823e+03,1.216285e+04
1.337393e+03,1.219453e+04
1.348964e+03,1.215817e+04
1.360535e+03,1.215430e+04
1.372106e+03,1.209747e+04
1.383677e+03,1.209024e+04
1.395247e+03,1.208101e+04
1.406818e+03,1.204015e+04
1.418389e+03,1.205189e+04
1.429960e+03,1.198803e+04
1.441531e+03,1.185936e+04
1.453101e+03,1.172093e+04
1.464672e+03,1.164433e+04
1.476243e+03,1.158306e+04
1.487814e+03,1.151011e+04
1.499385e+03,1.136476e+04
1.510955e+03,1.128978e+04
1.522526e+03,1.128695e+04
1.534097e+03,1.116019e+04
1.545668e+03,1.103572e+04
1.557239e+03,1.097252e+04
1.568809e+03,1.090500e+04
1.580380e+03,1.085361e+04
1.591951e+03,1.071696e+04
1.603522e+03,1.069482e+04
1.615093e+03,1.056969e+04
1.626663e+03,1.048685e+04
1.638234e+03,1.035901e+04
1.649805e+03,1.025637e+04
1.661376e+03,1.018270e+04
1.672947e+03,1.010100e+04
1.684517e+03,9.989149e+03
1.696088e+03,9.936082e+03
1.707659e+03,9.871460e+03
1.719230e+03,9.782693e+03
1.730801e+03,9.634486e+03
1.742371e+03,9.586826e+03
1.753942e+03,9.516706e+03
1.765513e+03,9.445143e+03
1.777084e+03,9.372917e+03
1.788655e+03,9.289603e+03
1.800225e+03,9.208340e+03
1.811796e+03,9.130324e+03
1.823367e+03,9.039043e+03
1.834938e+03,8.927946e+03
1.846509e+03,8.926926e+03
1.858079e+03,8.839069e+03
1.869650e+03,8.724437e+03
1.881221e+03,8.630458e+03
1.892792e+03,8.567724e+03
1.904363e+03,8.442088e+03
1.915933e+03,8.424706e+03
1.927504e+03,8.354308e+03
1.939075e+03,8.254692e+03
1.950646e+03,8.157927e+03
1.962217e+03,8.104068e+03
1.973787e+03,7.987842e+03
1.985358e+03,7.959095e+03
1.996929e+03,7.824607e+03
2.008500e+03,7.802216e+03
2.020071e+03,7.689267e+03
2.031641e+03,7.623211e+03
2.043212e+03,7.541411e+03
2.054783e+03,7.454375e+03
2.066354e+03,7.381048e+03
2.077925e+03,7.344579e+03
2.089496e+03,7.234427e+03
2.101066e+03,7.173443e+03
2.112637e+03,7.102666e+03
2.124208e+03,7.074652e+03
2.135779e+03,6.951177e+03
2.147350e+03,6.815888e+03
2.158920e+03,6.780161e+03
2.170491e+03,6.717156e+03
2.182062e+03,6.607811e+03
2.193633e+03,6.581880e+03
2.205204e+03,6.474083e+03
2.216774e+03,6.440851e+03
2.228345e+03,6.262182e+03
2.239916e+03,6.245375e+03
2.251487e+03,6.195579e+03
2.263058e+03,6.133313e+03
2.274628e+03,6.040334e+03
2.286199e+03,5.921047e+03
2.297770e+03,5.938005e+03
2.309341e+03,5.792206e+03
2.320912e+03,5.750956e+03
2.332482e+03,5.684921e+03
2.344053e+03,5.620273e+03
2.355624e+03,5.522675e+03
2.367195e+03,5.471915e+03
2.378766e+03,5.403782e+03
2.390336e+03,5.317720e+03
2.401907e+03,5.259529e+03
2.413478e+03,5.235517e+03
2.425049e+03,5.190956e+03
2.436620e+03,5.091891e+03
2.448190e+03,5.047289e+03
2.459761e+03,4.962108e+03
2.471332e+03,4.919071e+03
2.482903e+03,4.840832e+03
2.494474e+03,4.801831e+03
2.506044e+03,4.695181e+03
2.517615e+03,4.724242e+03
2.529186e+03,4.691149e+03
2.540757e+03,4.572325e+03
2.552328e+03,4.562174e+03
2.563898e+03,4.504875e+03
2.575469e+03,4.445099e+03
2.587040e+03,4.389745e+03
2.598611e+03,4.378282e+03
2.610182e+03,4.319533e+03
2.621752e+03,4.275983e+03
2.633323e+03,4.251549e+03
2.644894e+03,4.157079e+03
2.656465e+03,4.167053e+03
2.668036e+03,4.117500e+03
2.679606e+03,4.099546e+03
2.691177e+03,4.040301e+03
2.702748e+03,4.003156e+03
2.714319e+03,3.979988e+03
2.725890e+03,3.911277e+03
2.737460e+03,3.899206e+03
2.749031e+03,3.880262e+03
2.760602e+03,3.878016e+03
2.772173e+03,3.793032e+03
2.783744e+03,3.775690e+03
2.795314e+03,3.763811e+03
2.806885e+03,3.725041e+03
2.818456e+03,3.669460e+03
2.830027e+03,3.644116e+03
2.841598e+03,3.605121e+03
2.853168e+03,3.568523e+03
2.864739e+03,3.556012e+03
2.876310e+03,3.571610e+03
2.887881e+03,3.504949e+03
2.899452e+03,3.502962e+03
2.911022e+03,3.439307e+03
2.922593e+03,3.469714e+03
2.934164e+03,3.384039e+03
2.945735e+03,3.411693e+03
2.957306e+03,3.414575e+03
2.968876e+03,3.347179e+03
2.980447e+03,3.370292e+03
2.992018e+03,3.319041e+03
3.003589e+03,3.236774e+03
3.015160e+03,3.265684e+03
3.026730e+03,3.250974e+03
3.038301e+03,3.246627e+03
3.049872e+03,3.171140e+03
3.061443e+03,3.213458e+03
3.073014e+03,3.157710e+03
3.084584e+03,3.173485e+03
3.096155e+03,3.170942e+03
3.107726e+03,3.154183e+03
3.119297e+03,3.075057e+03
3.130868e+03,3.106772e+03
3.142438e+03,3.121004e+03
3.154009e+03,3.126125e+03
3.165580e+03,3.169286e+03
3.177151e+03,3.095200e+03
3.188722e+03,3.079630e+03
3.200292e+03,3.191449e+03
3.211863e+03,0.000000e+00
3.223434e+03,0.000000e+00
3.235005e+03,0.000000e+00
3.246576e+03,0.000000e+00
3.258146e+03,0.000000e+00
3.269717e+03,0.000000e+00
3.281288e+03,0.000000e+00
3.292859e+03,0.000000e+00
3.304430e+03,0.000000e+00
3.316000e+03,0.000000e+00
3.327571e+03,0.000000e+00
3.339142e+03,0.000000e+00
3.350713e+03,0.000000e+00
3.362284e+03,0.000000e+00
3.373854e+03,0.000000e+00
3.385425e+03,0.000000e+00
3.396996e+03,0.000000e+00
3.408567e+03,0.000000e+00
3.420138e+03,0.000000e+00
3.431708e+03,0.000000e+00
3.443279e+03,0.000000e+00
3.454850e+03,0.000000e+00
3.466421e+03,0.000000e+00
3.477992e+03,0.000000e+00
3.489563e+03,0.000000e+00
3.500169e+03,0.000000e+00