File: RAMAN_data/23052023_r3/black fibre4.CSV
9.931763e+01,0.000000e+00
1.108884e+02,0.000000e+00
1.224592e+02,0.000000e+00
1.340300e+02,0.000000e+00
1.456008e+02,0.000000e+00
1.571716e+02,0.000000e+00
1.687424e+02,0.000000e+00
1.803132e+02,0.000000e+00
1.918840e+02,0.000000e+00
2.034548e+02,3.031823e+03
2.150256e+02,3.037455e+03
2.265964e+02,3.061966e+03
2.381673e+02,3.080954e+03
2.497381e+02,3.111753e+03
2.613088e+02,3.125495e+03
2.728796e+02,3.134709e+03
2.844504e+02,3.144352e+03
2.960212e+02,3.155665e+03
3.075920e+02,3.163738e+03
3.191628e+02,3.182744e+03
3.307336e+02,3.199996e+03
3.423044e+02,3.194137e+03
3.538752e+02,3.215667e+03
3.654461e+02,3.214066e+03
3.770169e+02,3.260931e+03
3.885877e+02,3.230292e+03
4.001585e+02,3.239087e+03
4.117293e+02,3.233777e+03
4.233001e+02,3.242135e+03
4.348709e+02,3.250254e+03
4.464417e+02,3.250933e+03
4.580125e+02,3.249593e+03
4.695833e+02,3.266359e+03
4.811541e+02,3.290178e+03
4.927249e+02,3.277623e+03
5.042957e+02,3.248461e+03
5.158665e+02,3.247106e+03
5.274373e+02,3.253078e+03
5.390081e+02,3.238946e+03
5.505789e+02,3.226386e+03
5.621497e+02,3.232513e+03
5.737205e+02,3.215187e+03
5.852913e+02,3.203805e+03
5.968621e+02,3.200397e+03
6.084329e+02,3.191828e+03
6.200037e+02,3.202645e+03
6.315745e+02,3.170488e+03
6.431453e+02,3.166169e+03
6.547161e+02,3.152118e+03
6.662869e+02,3.151323e+03
6.778577e+02,3.138222e+03
6.894285e+02,3.122219e+03
7.009993e+02,3.114979e+03
7.125701e+02,3.099832e+03
7.241409e+02,3.092082e+03
7.357117e+02,3.081476e+03
7.472825e+02,3.074260e+03
7.588533e+02,3.049130e+03
7.704241e+02,3.036951e+03
7.819949e+02,3.021765e+03
7.935657e+02,3.003555e+03
8.051365e+02,2.992454e+03
8.167073e+02,2.971169e+03
8.282781e+02,2.951362e+03
8.398489e+02,2.957663e+03
8.514197e+02,2.941571e+03
8.629905e+02,2.925809e+03
8.745613e+02,2.916626e+03
8.861321e+02,2.917441e+03
8.977029e+02,2.865143e+03
9.092737e+02,2.857949e+03
9.208445e+02,2.845962e+03
9.324153e+02,2.823543e+03
9.439861e+02,2.793498e+03
9.555569e+02,2.776048e+03
9.671277e+02,2.761032e+03
9.786985e+02,2.760816e+03
9.902693e+02,2.741447e+03
1.001840e+03,2.719875e+03
1.013411e+03,2.708351e+03
1.024982e+03,2.687999e+03
1.036552e+03,2.680931e+03
1.048123e+03,2.668040e+03
1.059694e+03,2.656418e+03
1.071265e+03,2.637310e+03
1.082836e+03,2.641700e+03
1.094406e+03,2.614732e+03
1.105977e+03,2.589906e+03
1.117548e+03,2.636036e+03
1.129119e+03,2.630505e+03
1.140690e+03,2.603867e+03
1.152261e+03,2.614343e+03
1.163831e+03,2.542240e+03
1.175402e+03,2.541553e+03
1.186973e+03,2.533287e+03
1.198544e+03,2.502461e+03
1.210115e+03,2.514238e+03
1.221685e+03,2.458401e+03
1.233256e+03,2.438747e+03
1.244827e+03,2.454880e+03
1.256398e+03,2.423083e+03
1.267969e+03,2.443485e+03
1.279539e+03,2.473965e+03
1.291110e+03,2.412020e+03
1.302681e+03,2.391665e+03
1.314252e+03,2.366227e+03
1.325823e+03,2.353444e+03
1.337393e+03,2.381964e+03
1.348964e+03,2.373627e+03
1.360535e+03,2.338357e+03
1.372106e+03,2.320387e+03
1.383677e+03,2.296493e+03
1.395247e+03,2.275682e+03
1.406818e+03,2.273384e+03
1.418389e+03,2.248164e+03
1.429960e+03,2.231566e+03
1.441531e+03,2.212476e+03
1.453101e+03,2.185629e+03
1.464672e+03,2.174715e+03
1.476243e+03,2.171923e+03
1.487814e+03,2.163887e+03
1.499385e+03,2.145798e+03
1.510955e+03,2.122746e+03
1.522526e+03,2.120623e+03
1.534097e+03,2.097786e+03
1.545668e+03,2.090634e+03
1.557239e+03,2.086116e+03
1.568809e+03,2.118826e+03
1.580380e+03,2.107040e+03
1.591951e+03,2.074133e+03
1.603522e+03,2.021268e+03
1.615093e+03,2.011868e+03
1.626663e+03,1.988622e+03
1.638234e+03,1.972257e+03
1.649805e+03,1.952420e+03
1.661376e+03,1.949505e+03
1.672947e+03,1.926867e+03
1.684517e+03,1.919570e+03
1.696088e+03,1.876657e+03
1.707659e+03,1.896070e+03
1.719230e+03,1.862429e+03
1.730801e+03,1.843488e+03
1.742371e+03,1.836721e+03
1.753942e+03,1.830733e+03
1.765513e+03,1.800255e+03
1.777084e+03,1.771982e+03
1.788655e+03,1.772492e+03
1.800225e+03,1.763967e+03
1.811796e+03,1.729895e+03
1.823367e+03,1.731701e+03
1.834938e+03,1.705110e+03
1.846509e+03,1.708466e+03
1.858079e+03,1.689056e+03
1.869650e+03,1.651645e+03
1.881221e+03,1.638888e+03
1.892792e+03,1.627985e+03
1.904363e+03,1.620068e+03
1.915933e+03,1.585703e+03
1.927504e+03,1.572167e+03
1.939075e+03,1.571786e+03
1.950646e+03,1.546759e+03
1.962217e+03,1.538021e+03
1.973787e+03,1.530376e+03
1.985358e+03,1.492696e+03
1.996929e+03,1.484159e+03
2.008500e+03,1.462751e+03
2.020071e+03,1.456356e+03
2.031641e+03,1.441315e+03
2.043212e+03,1.418545e+03
2.054783e+03,1.401923e+03
2.066354e+03,1.396057e+03
2.077925e+03,1.385601e+03
2.089496e+03,1.364331e+03
2.101066e+03,1.342266e+03
2.112637e+03,1.312509e+03
2.124208e+03,1.322707e+03
2.135779e+03,1.294856e+03
2.147350e+03,1.284433e+03
2.158920e+03,1.265511e+03
2.170491e+03,1.249550e+03
2.182062e+03,1.241246e+03
2.193633e+03,1.234710e+03
2.205204e+03,1.211418e+03
2.216774e+03,1.207373e+03
2.228345e+03,1.187001e+03
2.239916e+03,1.163214e+03
2.251487e+03,1.162640e+03
2.263058e+03,1.133268e+03
2.274628e+03,1.138716e+03
2.286199e+03,1.110066e+03
2.297770e+03,1.105585e+03
2.309341e+03,1.086218e+03
2.320912e+03,1.076601e+03
2.332482e+03,1.070037e+03
2.344053e+03,1.052760e+03
2.355624e+03,1.032695e+03
2.367195e+03,1.041166e+03
2.378766e+03,1.017700e+03
2.390336e+03,1.007509e+03
2.401907e+03,9.867931e+02
2.413478e+03,9.747165e+02
2.425049e+03,9.678262e+02
2.436620e+03,9.572480e+02
2.448190e+03,9.482126e+02
2.459761e+03,9.401814e+02
2.471332e+03,9.326699e+02
2.482903e+03,9.240911e+02
2.494474e+03,9.008002e+02
2.506044e+03,8.900051e+02
2.517615e+03,8.891043e+02
2.529186e+03,8.754360e+02
2.540757e+03,8.655285e+02
2.552328e+03,8.814454e+02
2.563898e+03,8.730505e+02
2.575469e+03,8.463176e+02
2.587040e+03,8.364286e+02
2.598611e+03,8.345544e+02
2.610182e+03,8.099772e+02
2.621752e+03,8.090491e+02
2.633323e+03,7.979041e+02
2.644894e+03,7.772722e+02
2.656465e+03,8.003962e+02
2.668036e+03,7.740153e+02
2.679606e+03,7.699941e+02
2.691177e+03,7.627471e+02
2.702748e+03,7.521668e+02
2.714319e+03,7.451099e+02
2.725890e+03,7.512891e+02
2.737460e+03,7.267416e+02
2.749031e+03,7.099634e+02
2.760602e+03,7.164299e+02
2.772173e+03,7.095278e+02
2.783744e+03,7.203983e+02
2.795314e+03,6.883895e+02
2.806885e+03,7.161787e+02
2.818456e+03,6.932715e+02
2.830027e+03,6.760550e+02
2.841598e+03,6.669177e+02
2.853168e+03,6.654310e+02
2.864739e+03,6.667950e+02
2.876310e+03,6.529561e+02
2.887881e+03,6.693141e+02
2.899452e+03,6.803260e+02
2.911022e+03,6.617349e+02
2.922593e+03,6.510944e+02
2.934164e+03,6.410822e+02
2.945735e+03,6.452763e+02
2.957306e+03,6.772784e+02
2.968876e+03,6.161739e+02
2.980447e+03,6.174894e+02
2.992018e+03,6.104318e+02
3.003589e+03,5.972083e+02
3.015160e+03,6.013278e+02
3.026730e+03,5.889562e+02
3.038301e+03,5.854796e+02
3.049872e+03,5.705155e+02
3.061443e+03,5.901718e+02
3.073014e+03,5.685616e+02
3.084584e+03,5.867012e+02
3.096155e+03,5.543572e+02
3.107726e+03,5.343205e+02
3.119297e+03,6.014502e+02
3.130868e+03,5.924443e+02
3.142438e+03,5.808720e+02
3.154009e+03,5.891284e+02
3.165580e+03,5.788226e+02
3.177151e+03,5.877308e+02
3.188722e+03,5.744032e+02
3.200292e+03,6.031788e+02
3.211863e+03,0.000000e+00
3.223434e+03,0.000000e+00
3.235005e+03,0.000000e+00
3.246576e+03,0.000000e+00
3.258146e+03,0.000000e+00
3.269717e+03,0.000000e+00
3.281288e+03,0.000000e+00
3.292859e+03,0.000000e+00
3.304430e+03,0.000000e+00
3.316000e+03,0.000000e+00
3.327571e+03,0.000000e+00
3.339142e+03,0.000000e+00
3.350713e+03,0.000000e+00
3.362284e+03,0.000000e+00
3.373854e+03,0.000000e+00
3.385425e+03,0.000000e+00
3.396996e+03,0.000000e+00
3.408567e+03,0.000000e+00
3.420138e+03,0.000000e+00
3.431708e+03,0.000000e+00
3.443279e+03,0.000000e+00
3.454850e+03,0.000000e+00
3.466421e+03,0.000000e+00
3.477992e+03,0.000000e+00
3.489563e+03,0.000000e+00
3.500169e+03,0.000000e+00