File: RAMAN_data/23052023_r3/black fibre3.CSV
9.931763e+01,0.000000e+00
1.108884e+02,0.000000e+00
1.224592e+02,0.000000e+00
1.340300e+02,0.000000e+00
1.456008e+02,0.000000e+00
1.571716e+02,0.000000e+00
1.687424e+02,0.000000e+00
1.803132e+02,0.000000e+00
1.918840e+02,0.000000e+00
2.034548e+02,2.901019e+03
2.150256e+02,2.929910e+03
2.265964e+02,2.942911e+03
2.381673e+02,2.947235e+03
2.497381e+02,2.961366e+03
2.613088e+02,2.963274e+03
2.728796e+02,2.999859e+03
2.844504e+02,3.017122e+03
2.960212e+02,3.014104e+03
3.075920e+02,3.007160e+03
3.191628e+02,3.038145e+03
3.307336e+02,3.025891e+03
3.423044e+02,3.042233e+03
3.538752e+02,3.037099e+03
3.654461e+02,3.050926e+03
3.770169e+02,3.048527e+03
3.885877e+02,3.047589e+03
4.001585e+02,3.053218e+03
4.117293e+02,3.065751e+03
4.233001e+02,3.046926e+03
4.348709e+02,3.053860e+03
4.464417e+02,3.053692e+03
4.580125e+02,3.034304e+03
4.695833e+02,3.035187e+03
4.811541e+02,3.075407e+03
4.927249e+02,3.057751e+03
5.042957e+02,3.028166e+03
5.158665e+02,3.010993e+03
5.274373e+02,3.018156e+03
5.390081e+02,3.012306e+03
5.505789e+02,2.992505e+03
5.621497e+02,2.999289e+03
5.737205e+02,2.985773e+03
5.852913e+02,2.966979e+03
5.968621e+02,2.972896e+03
6.084329e+02,2.975052e+03
6.200037e+02,2.954190e+03
6.315745e+02,2.938906e+03
6.431453e+02,2.928102e+03
6.547161e+02,2.916688e+03
6.662869e+02,2.910913e+03
6.778577e+02,2.894606e+03
6.894285e+02,2.862964e+03
7.009993e+02,2.883733e+03
7.125701e+02,2.844005e+03
7.241409e+02,2.846450e+03
7.357117e+02,2.836663e+03
7.472825e+02,2.837829e+03
7.588533e+02,2.789419e+03
7.704241e+02,2.772477e+03
7.819949e+02,2.757038e+03
7.935657e+02,2.769916e+03
8.051365e+02,2.750297e+03
8.167073e+02,2.722463e+03
8.282781e+02,2.723783e+03
8.398489e+02,2.691998e+03
8.514197e+02,2.669223e+03
8.629905e+02,2.666323e+03
8.745613e+02,2.651859e+03
8.861321e+02,2.659276e+03
8.977029e+02,2.626941e+03
9.092737e+02,2.602348e+03
9.208445e+02,2.574370e+03
9.324153e+02,2.580634e+03
9.439861e+02,2.535390e+03
9.555569e+02,2.528101e+03
9.671277e+02,2.507887e+03
9.786985e+02,2.494276e+03
9.902693e+02,2.485558e+03
1.001840e+03,2.471011e+03
1.013411e+03,2.446722e+03
1.024982e+03,2.437577e+03
1.036552e+03,2.415792e+03
1.048123e+03,2.405638e+03
1.059694e+03,2.400000e+03
1.071265e+03,2.383667e+03
1.082836e+03,2.386876e+03
1.094406e+03,2.383531e+03
1.105977e+03,2.346282e+03
1.117548e+03,2.373229e+03
1.129119e+03,2.354765e+03
1.140690e+03,2.344245e+03
1.152261e+03,2.347683e+03
1.163831e+03,2.285317e+03
1.175402e+03,2.273154e+03
1.186973e+03,2.248891e+03
1.198544e+03,2.247503e+03
1.210115e+03,2.227409e+03
1.221685e+03,2.205956e+03
1.233256e+03,2.178986e+03
1.244827e+03,2.181612e+03
1.256398e+03,2.150149e+03
1.267969e+03,2.167669e+03
1.279539e+03,2.185292e+03
1.291110e+03,2.140558e+03
1.302681e+03,2.113995e+03
1.314252e+03,2.101940e+03
1.325823e+03,2.094092e+03
1.337393e+03,2.119601e+03
1.348964e+03,2.088310e+03
1.360535e+03,2.063741e+03
1.372106e+03,2.032190e+03
1.383677e+03,2.028601e+03
1.395247e+03,2.007473e+03
1.406818e+03,1.993841e+03
1.418389e+03,1.984866e+03
1.429960e+03,1.964161e+03
1.441531e+03,1.929450e+03
1.453101e+03,1.926516e+03
1.464672e+03,1.913180e+03
1.476243e+03,1.892825e+03
1.487814e+03,1.876744e+03
1.499385e+03,1.873938e+03
1.510955e+03,1.843820e+03
1.522526e+03,1.837214e+03
1.534097e+03,1.819481e+03
1.545668e+03,1.820502e+03
1.557239e+03,1.818660e+03
1.568809e+03,1.820516e+03
1.580380e+03,1.811282e+03
1.591951e+03,1.792704e+03
1.603522e+03,1.762374e+03
1.615093e+03,1.756715e+03
1.626663e+03,1.724582e+03
1.638234e+03,1.708392e+03
1.649805e+03,1.701862e+03
1.661376e+03,1.682359e+03
1.672947e+03,1.663445e+03
1.684517e+03,1.657698e+03
1.696088e+03,1.655898e+03
1.707659e+03,1.634951e+03
1.719230e+03,1.613946e+03
1.730801e+03,1.598049e+03
1.742371e+03,1.585293e+03
1.753942e+03,1.573457e+03
1.765513e+03,1.555953e+03
1.777084e+03,1.546302e+03
1.788655e+03,1.520033e+03
1.800225e+03,1.522601e+03
1.811796e+03,1.518470e+03
1.823367e+03,1.488847e+03
1.834938e+03,1.475992e+03
1.846509e+03,1.478404e+03
1.858079e+03,1.455473e+03
1.869650e+03,1.436708e+03
1.881221e+03,1.410255e+03
1.892792e+03,1.417810e+03
1.904363e+03,1.407732e+03
1.915933e+03,1.390129e+03
1.927504e+03,1.355677e+03
1.939075e+03,1.368361e+03
1.950646e+03,1.355372e+03
1.962217e+03,1.333909e+03
1.973787e+03,1.316373e+03
1.985358e+03,1.293583e+03
1.996929e+03,1.298683e+03
2.008500e+03,1.269601e+03
2.020071e+03,1.255521e+03
2.031641e+03,1.237025e+03
2.043212e+03,1.241290e+03
2.054783e+03,1.200928e+03
2.066354e+03,1.207454e+03
2.077925e+03,1.177814e+03
2.089496e+03,1.167455e+03
2.101066e+03,1.161678e+03
2.112637e+03,1.149634e+03
2.124208e+03,1.161191e+03
2.135779e+03,1.124134e+03
2.147350e+03,1.101950e+03
2.158920e+03,1.100508e+03
2.170491e+03,1.095993e+03
2.182062e+03,1.058096e+03
2.193633e+03,1.048679e+03
2.205204e+03,1.045926e+03
2.216774e+03,1.043292e+03
2.228345e+03,1.014431e+03
2.239916e+03,9.919250e+02
2.251487e+03,9.965187e+02
2.263058e+03,9.760665e+02
2.274628e+03,9.657025e+02
2.286199e+03,9.606771e+02
2.297770e+03,9.403599e+02
2.309341e+03,9.202038e+02
2.320912e+03,9.318000e+02
2.332482e+03,8.984619e+02
2.344053e+03,9.088815e+02
2.355624e+03,8.836175e+02
2.367195e+03,8.716620e+02
2.378766e+03,8.635895e+02
2.390336e+03,8.596483e+02
2.401907e+03,8.399064e+02
2.413478e+03,8.219393e+02
2.425049e+03,8.293596e+02
2.436620e+03,8.113113e+02
2.448190e+03,7.999695e+02
2.459761e+03,7.992019e+02
2.471332e+03,7.874628e+02
2.482903e+03,7.772032e+02
2.494474e+03,7.654598e+02
2.506044e+03,7.471808e+02
2.517615e+03,7.422575e+02
2.529186e+03,7.373993e+02
2.540757e+03,7.249349e+02
2.552328e+03,7.196505e+02
2.563898e+03,7.195474e+02
2.575469e+03,7.147421e+02
2.587040e+03,6.908712e+02
2.598611e+03,6.820994e+02
2.610182e+03,6.800419e+02
2.621752e+03,6.866193e+02
2.633323e+03,6.737657e+02
2.644894e+03,6.485350e+02
2.656465e+03,6.624465e+02
2.668036e+03,6.625115e+02
2.679606e+03,6.467017e+02
2.691177e+03,6.190751e+02
2.702748e+03,6.340462e+02
2.714319e+03,6.195471e+02
2.725890e+03,5.996768e+02
2.737460e+03,6.130389e+02
2.749031e+03,5.965387e+02
2.760602e+03,5.934499e+02
2.772173e+03,5.928810e+02
2.783744e+03,5.970760e+02
2.795314e+03,5.778218e+02
2.806885e+03,5.880745e+02
2.818456e+03,5.700097e+02
2.830027e+03,5.744135e+02
2.841598e+03,5.670463e+02
2.853168e+03,5.698839e+02
2.864739e+03,5.576478e+02
2.876310e+03,5.812934e+02
2.887881e+03,5.891202e+02
2.899452e+03,5.637219e+02
2.911022e+03,5.548737e+02
2.922593e+03,5.453023e+02
2.934164e+03,5.333522e+02
2.945735e+03,5.170669e+02
2.957306e+03,5.702897e+02
2.968876e+03,5.054975e+02
2.980447e+03,5.066714e+02
2.992018e+03,5.092305e+02
3.003589e+03,4.995633e+02
3.015160e+03,5.011192e+02
3.026730e+03,4.960854e+02
3.038301e+03,4.940191e+02
3.049872e+03,4.745339e+02
3.061443e+03,4.545785e+02
3.073014e+03,4.987037e+02
3.084584e+03,4.812892e+02
3.096155e+03,4.736167e+02
3.107726e+03,4.932460e+02
3.119297e+03,4.822818e+02
3.130868e+03,5.058750e+02
3.142438e+03,4.843168e+02
3.154009e+03,4.703410e+02
3.165580e+03,4.810295e+02
3.177151e+03,4.925187e+02
3.188722e+03,4.828546e+02
3.200292e+03,5.068343e+02
3.211863e+03,0.000000e+00
3.223434e+03,0.000000e+00
3.235005e+03,0.000000e+00
3.246576e+03,0.000000e+00
3.258146e+03,0.000000e+00
3.269717e+03,0.000000e+00
3.281288e+03,0.000000e+00
3.292859e+03,0.000000e+00
3.304430e+03,0.000000e+00
3.316000e+03,0.000000e+00
3.327571e+03,0.000000e+00
3.339142e+03,0.000000e+00
3.350713e+03,0.000000e+00
3.362284e+03,0.000000e+00
3.373854e+03,0.000000e+00
3.385425e+03,0.000000e+00
3.396996e+03,0.000000e+00
3.408567e+03,0.000000e+00
3.420138e+03,0.000000e+00
3.431708e+03,0.000000e+00
3.443279e+03,0.000000e+00
3.454850e+03,0.000000e+00
3.466421e+03,0.000000e+00
3.477992e+03,0.000000e+00
3.489563e+03,0.000000e+00
3.500169e+03,0.000000e+00