File: RAMAN_data/23052023_r3/blue fibre12.CSV
9.931763e+01,0.000000e+00
1.108884e+02,0.000000e+00
1.224592e+02,0.000000e+00
1.340300e+02,0.000000e+00
1.456008e+02,0.000000e+00
1.571716e+02,0.000000e+00
1.687424e+02,0.000000e+00
1.803132e+02,0.000000e+00
1.918840e+02,0.000000e+00
2.034548e+02,1.028298e+04
2.150256e+02,1.033038e+04
2.265964e+02,1.038093e+04
2.381673e+02,1.050604e+04
2.497381e+02,1.054383e+04
2.613088e+02,1.061820e+04
2.728796e+02,1.070296e+04
2.844504e+02,1.079211e+04
2.960212e+02,1.083058e+04
3.075920e+02,1.086665e+04
3.191628e+02,1.090906e+04
3.307336e+02,1.100403e+04
3.423044e+02,1.105207e+04
3.538752e+02,1.110825e+04
3.654461e+02,1.114710e+04
3.770169e+02,1.115083e+04
3.885877e+02,1.117937e+04
4.001585e+02,1.115889e+04
4.117293e+02,1.114972e+04
4.233001e+02,1.113660e+04
4.348709e+02,1.114887e+04
4.464417e+02,1.114046e+04
4.580125e+02,1.113127e+04
4.695833e+02,1.114896e+04
4.811541e+02,1.112411e+04
4.927249e+02,1.110469e+04
5.042957e+02,1.109271e+04
5.158665e+02,1.114153e+04
5.274373e+02,1.108509e+04
5.390081e+02,1.106029e+04
5.505789e+02,1.105329e+04
5.621497e+02,1.102608e+04
5.737205e+02,1.095977e+04
5.852913e+02,1.094931e+04
5.968621e+02,1.095767e+04
6.084329e+02,1.097103e+04
6.200037e+02,1.086043e+04
6.315745e+02,1.084634e+04
6.431453e+02,1.078055e+04
6.547161e+02,1.079260e+04
6.662869e+02,1.073318e+04
6.778577e+02,1.064381e+04
6.894285e+02,1.062455e+04
7.009993e+02,1.062535e+04
7.125701e+02,1.055687e+04
7.241409e+02,1.054249e+04
7.357117e+02,1.044409e+04
7.472825e+02,1.040279e+04
7.588533e+02,1.041043e+04
7.704241e+02,1.030597e+04
7.819949e+02,1.026497e+04
7.935657e+02,1.026847e+04
8.051365e+02,1.020012e+04
8.167073e+02,1.014980e+04
8.282781e+02,1.009818e+04
8.398489e+02,1.006089e+04
8.514197e+02,1.001021e+04
8.629905e+02,9.945339e+03
8.745613e+02,9.878308e+03
8.861321e+02,9.874279e+03
8.977029e+02,9.811497e+03
9.092737e+02,9.729030e+03
9.208445e+02,9.642816e+03
9.324153e+02,9.607875e+03
9.439861e+02,9.534584e+03
9.555569e+02,9.467390e+03
9.671277e+02,9.438705e+03
9.786985e+02,9.384860e+03
9.902693e+02,9.303197e+03
1.001840e+03,9.251413e+03
1.013411e+03,9.237325e+03
1.024982e+03,9.175824e+03
1.036552e+03,9.129440e+03
1.048123e+03,9.082375e+03
1.059694e+03,9.011594e+03
1.071265e+03,9.013559e+03
1.082836e+03,8.951198e+03
1.094406e+03,8.887506e+03
1.105977e+03,8.834902e+03
1.117548e+03,8.800769e+03
1.129119e+03,8.713331e+03
1.140690e+03,8.699036e+03
1.152261e+03,8.645556e+03
1.163831e+03,8.567400e+03
1.175402e+03,8.524865e+03
1.186973e+03,8.459715e+03
1.198544e+03,8.441593e+03
1.210115e+03,8.382491e+03
1.221685e+03,8.345212e+03
1.233256e+03,8.228644e+03
1.244827e+03,8.234794e+03
1.256398e+03,8.184381e+03
1.267969e+03,8.114322e+03
1.279539e+03,8.063877e+03
1.291110e+03,8.056981e+03
1.302681e+03,8.018857e+03
1.314252e+03,7.943360e+03
1.325823e+03,7.897493e+03
1.337393e+03,7.884159e+03
1.348964e+03,7.825914e+03
1.360535e+03,7.736906e+03
1.372106e+03,7.715170e+03
1.383677e+03,7.675182e+03
1.395247e+03,7.587012e+03
1.406818e+03,7.529334e+03
1.418389e+03,7.549179e+03
1.429960e+03,7.476932e+03
1.441531e+03,7.433260e+03
1.453101e+03,7.389170e+03
1.464672e+03,7.334900e+03
1.476243e+03,7.283298e+03
1.487814e+03,7.214326e+03
1.499385e+03,7.171462e+03
1.510955e+03,7.163920e+03
1.522526e+03,7.109827e+03
1.534097e+03,7.039479e+03
1.545668e+03,7.033465e+03
1.557239e+03,6.972857e+03
1.568809e+03,7.033967e+03
1.580380e+03,6.972578e+03
1.591951e+03,6.875843e+03
1.603522e+03,6.823758e+03
1.615093e+03,6.757694e+03
1.626663e+03,6.694530e+03
1.638234e+03,6.635886e+03
1.649805e+03,6.545948e+03
1.661376e+03,6.523291e+03
1.672947e+03,6.504924e+03
1.684517e+03,6.419069e+03
1.696088e+03,6.377136e+03
1.707659e+03,6.343463e+03
1.719230e+03,6.277199e+03
1.730801e+03,6.196583e+03
1.742371e+03,6.194910e+03
1.753942e+03,6.160414e+03
1.765513e+03,6.087428e+03
1.777084e+03,6.047614e+03
1.788655e+03,6.001106e+03
1.800225e+03,5.955515e+03
1.811796e+03,5.912625e+03
1.823367e+03,5.858969e+03
1.834938e+03,5.824623e+03
1.846509e+03,5.786017e+03
1.858079e+03,5.722262e+03
1.869650e+03,5.662970e+03
1.881221e+03,5.594519e+03
1.892792e+03,5.569924e+03
1.904363e+03,5.514734e+03
1.915933e+03,5.460224e+03
1.927504e+03,5.398962e+03
1.939075e+03,5.331511e+03
1.950646e+03,5.310802e+03
1.962217e+03,5.288313e+03
1.973787e+03,5.234205e+03
1.985358e+03,5.177112e+03
1.996929e+03,5.122883e+03
2.008500e+03,5.067278e+03
2.020071e+03,5.008487e+03
2.031641e+03,4.970272e+03
2.043212e+03,4.921975e+03
2.054783e+03,4.872642e+03
2.066354e+03,4.855686e+03
2.077925e+03,4.760345e+03
2.089496e+03,4.708698e+03
2.101066e+03,4.689995e+03
2.112637e+03,4.616375e+03
2.124208e+03,4.612221e+03
2.135779e+03,4.551433e+03
2.147350e+03,4.448534e+03
2.158920e+03,4.400821e+03
2.170491e+03,4.397017e+03
2.182062e+03,4.337338e+03
2.193633e+03,4.289526e+03
2.205204e+03,4.262106e+03
2.216774e+03,4.211485e+03
2.228345e+03,4.129750e+03
2.239916e+03,4.080450e+03
2.251487e+03,4.034741e+03
2.263058e+03,3.987950e+03
2.274628e+03,3.969233e+03
2.286199e+03,3.872828e+03
2.297770e+03,3.885331e+03
2.309341e+03,3.824037e+03
2.320912e+03,3.763542e+03
2.332482e+03,3.714369e+03
2.344053e+03,3.686374e+03
2.355624e+03,3.631759e+03
2.367195e+03,3.607476e+03
2.378766e+03,3.558023e+03
2.390336e+03,3.530792e+03
2.401907e+03,3.490082e+03
2.413478e+03,3.459293e+03
2.425049e+03,3.430398e+03
2.436620e+03,3.368558e+03
2.448190e+03,3.339915e+03
2.459761e+03,3.271819e+03
2.471332e+03,3.269507e+03
2.482903e+03,3.191777e+03
2.494474e+03,3.197255e+03
2.506044e+03,3.174359e+03
2.517615e+03,3.110449e+03
2.529186e+03,3.111091e+03
2.540757e+03,3.039815e+03
2.552328e+03,3.020673e+03
2.563898e+03,2.969730e+03
2.575469e+03,2.985645e+03
2.587040e+03,2.947375e+03
2.598611e+03,2.894308e+03
2.610182e+03,2.900409e+03
2.621752e+03,2.877960e+03
2.633323e+03,2.801680e+03
2.644894e+03,2.794662e+03
2.656465e+03,2.807481e+03
2.668036e+03,2.738659e+03
2.679606e+03,2.736953e+03
2.691177e+03,2.680685e+03
2.702748e+03,2.673160e+03
2.714319e+03,2.631113e+03
2.725890e+03,2.621949e+03
2.737460e+03,2.607665e+03
2.749031e+03,2.542249e+03
2.760602e+03,2.536520e+03
2.772173e+03,2.537853e+03
2.783744e+03,2.509908e+03
2.795314e+03,2.485311e+03
2.806885e+03,2.454353e+03
2.818456e+03,2.426177e+03
2.830027e+03,2.414239e+03
2.841598e+03,2.420289e+03
2.853168e+03,2.388025e+03
2.864739e+03,2.378813e+03
2.876310e+03,2.368185e+03
2.887881e+03,2.329039e+03
2.899452e+03,2.341812e+03
2.911022e+03,2.290286e+03
2.922593e+03,2.296431e+03
2.934164e+03,2.285978e+03
2.945735e+03,2.283548e+03
2.957306e+03,2.302124e+03
2.968876e+03,2.209547e+03
2.980447e+03,2.199297e+03
2.992018e+03,2.199635e+03
3.003589e+03,2.167226e+03
3.015160e+03,2.155605e+03
3.026730e+03,2.147584e+03
3.038301e+03,2.163421e+03
3.049872e+03,2.147140e+03
3.061443e+03,2.134913e+03
3.073014e+03,2.138235e+03
3.084584e+03,2.063785e+03
3.096155e+03,2.061540e+03
3.107726e+03,2.030982e+03
3.119297e+03,2.095160e+03
3.130868e+03,2.032548e+03
3.142438e+03,2.081588e+03
3.154009e+03,1.996541e+03
3.165580e+03,1.980353e+03
3.177151e+03,2.047891e+03
3.188722e+03,2.077298e+03
3.200292e+03,2.004212e+03
3.211863e+03,0.000000e+00
3.223434e+03,0.000000e+00
3.235005e+03,0.000000e+00
3.246576e+03,0.000000e+00
3.258146e+03,0.000000e+00
3.269717e+03,0.000000e+00
3.281288e+03,0.000000e+00
3.292859e+03,0.000000e+00
3.304430e+03,0.000000e+00
3.316000e+03,0.000000e+00
3.327571e+03,0.000000e+00
3.339142e+03,0.000000e+00
3.350713e+03,0.000000e+00
3.362284e+03,0.000000e+00
3.373854e+03,0.000000e+00
3.385425e+03,0.000000e+00
3.396996e+03,0.000000e+00
3.408567e+03,0.000000e+00
3.420138e+03,0.000000e+00
3.431708e+03,0.000000e+00
3.443279e+03,0.000000e+00
3.454850e+03,0.000000e+00
3.466421e+03,0.000000e+00
3.477992e+03,0.000000e+00
3.489563e+03,0.000000e+00
3.500169e+03,0.000000e+00