File: RAMAN_data/23052023_r3/blue fibre11.CSV
9.931763e+01,0.000000e+00
1.108884e+02,0.000000e+00
1.224592e+02,0.000000e+00
1.340300e+02,0.000000e+00
1.456008e+02,0.000000e+00
1.571716e+02,0.000000e+00
1.687424e+02,0.000000e+00
1.803132e+02,0.000000e+00
1.918840e+02,0.000000e+00
2.034548e+02,7.050767e+03
2.150256e+02,7.135764e+03
2.265964e+02,7.168354e+03
2.381673e+02,7.291477e+03
2.497381e+02,7.347524e+03
2.613088e+02,7.413656e+03
2.728796e+02,7.517777e+03
2.844504e+02,7.557998e+03
2.960212e+02,7.578683e+03
3.075920e+02,7.613436e+03
3.191628e+02,7.655274e+03
3.307336e+02,7.698937e+03
3.423044e+02,7.731308e+03
3.538752e+02,7.748974e+03
3.654461e+02,7.775075e+03
3.770169e+02,7.839307e+03
3.885877e+02,7.824926e+03
4.001585e+02,7.829010e+03
4.117293e+02,7.861696e+03
4.233001e+02,7.894740e+03
4.348709e+02,7.880814e+03
4.464417e+02,7.886453e+03
4.580125e+02,7.901791e+03
4.695833e+02,7.912976e+03
4.811541e+02,7.876296e+03
4.927249e+02,7.903442e+03
5.042957e+02,7.888147e+03
5.158665e+02,7.918659e+03
5.274373e+02,7.902496e+03
5.390081e+02,7.914799e+03
5.505789e+02,7.947483e+03
5.621497e+02,7.927285e+03
5.737205e+02,7.846585e+03
5.852913e+02,7.806007e+03
5.968621e+02,7.848205e+03
6.084329e+02,7.887580e+03
6.200037e+02,7.753973e+03
6.315745e+02,7.766586e+03
6.431453e+02,7.717370e+03
6.547161e+02,7.672939e+03
6.662869e+02,7.662743e+03
6.778577e+02,7.617219e+03
6.894285e+02,7.592725e+03
7.009993e+02,7.554116e+03
7.125701e+02,7.513877e+03
7.241409e+02,7.442403e+03
7.357117e+02,7.426666e+03
7.472825e+02,7.376046e+03
7.588533e+02,7.348799e+03
7.704241e+02,7.302367e+03
7.819949e+02,7.285474e+03
7.935657e+02,7.233041e+03
8.051365e+02,7.178858e+03
8.167073e+02,7.105025e+03
8.282781e+02,7.073665e+03
8.398489e+02,7.044290e+03
8.514197e+02,6.989217e+03
8.629905e+02,6.955214e+03
8.745613e+02,6.888808e+03
8.861321e+02,6.865700e+03
8.977029e+02,6.779254e+03
9.092737e+02,6.742745e+03
9.208445e+02,6.679073e+03
9.324153e+02,6.631854e+03
9.439861e+02,6.576680e+03
9.555569e+02,6.493982e+03
9.671277e+02,6.443068e+03
9.786985e+02,6.396551e+03
9.902693e+02,6.336217e+03
1.001840e+03,6.285270e+03
1.013411e+03,6.255498e+03
1.024982e+03,6.210487e+03
1.036552e+03,6.146876e+03
1.048123e+03,6.126462e+03
1.059694e+03,6.029690e+03
1.071265e+03,6.052649e+03
1.082836e+03,6.003808e+03
1.094406e+03,5.918083e+03
1.105977e+03,5.873102e+03
1.117548e+03,5.848241e+03
1.129119e+03,5.758123e+03
1.140690e+03,5.712073e+03
1.152261e+03,5.690455e+03
1.163831e+03,5.625284e+03
1.175402e+03,5.564875e+03
1.186973e+03,5.503557e+03
1.198544e+03,5.497835e+03
1.210115e+03,5.434862e+03
1.221685e+03,5.378030e+03
1.233256e+03,5.325372e+03
1.244827e+03,5.301290e+03
1.256398e+03,5.236516e+03
1.267969e+03,5.187727e+03
1.279539e+03,5.166801e+03
1.291110e+03,5.119204e+03
1.302681e+03,5.081809e+03
1.314252e+03,5.038814e+03
1.325823e+03,4.979554e+03
1.337393e+03,4.978349e+03
1.348964e+03,4.925664e+03
1.360535e+03,4.872709e+03
1.372106e+03,4.837154e+03
1.383677e+03,4.797933e+03
1.395247e+03,4.751062e+03
1.406818e+03,4.688737e+03
1.418389e+03,4.673360e+03
1.429960e+03,4.645343e+03
1.441531e+03,4.614303e+03
1.453101e+03,4.582946e+03
1.464672e+03,4.530454e+03
1.476243e+03,4.519504e+03
1.487814e+03,4.456280e+03
1.499385e+03,4.420850e+03
1.510955e+03,4.398806e+03
1.522526e+03,4.354342e+03
1.534097e+03,4.320902e+03
1.545668e+03,4.284971e+03
1.557239e+03,4.285622e+03
1.568809e+03,4.360389e+03
1.580380e+03,4.260647e+03
1.591951e+03,4.184179e+03
1.603522e+03,4.115398e+03
1.615093e+03,4.084629e+03
1.626663e+03,4.061595e+03
1.638234e+03,4.018703e+03
1.649805e+03,3.968099e+03
1.661376e+03,3.964001e+03
1.672947e+03,3.911349e+03
1.684517e+03,3.874824e+03
1.696088e+03,3.851931e+03
1.707659e+03,3.832185e+03
1.719230e+03,3.769775e+03
1.730801e+03,3.747164e+03
1.742371e+03,3.707762e+03
1.753942e+03,3.671036e+03
1.765513e+03,3.647994e+03
1.777084e+03,3.618106e+03
1.788655e+03,3.567574e+03
1.800225e+03,3.547056e+03
1.811796e+03,3.511563e+03
1.823367e+03,3.462939e+03
1.834938e+03,3.454773e+03
1.846509e+03,3.409124e+03
1.858079e+03,3.393426e+03
1.869650e+03,3.351668e+03
1.881221e+03,3.327837e+03
1.892792e+03,3.279114e+03
1.904363e+03,3.244801e+03
1.915933e+03,3.216110e+03
1.927504e+03,3.180731e+03
1.939075e+03,3.131530e+03
1.950646e+03,3.123834e+03
1.962217e+03,3.082174e+03
1.973787e+03,3.038108e+03
1.985358e+03,3.026952e+03
1.996929e+03,2.990980e+03
2.008500e+03,2.937111e+03
2.020071e+03,2.902903e+03
2.031641e+03,2.891768e+03
2.043212e+03,2.847115e+03
2.054783e+03,2.801318e+03
2.066354e+03,2.792691e+03
2.077925e+03,2.734872e+03
2.089496e+03,2.751626e+03
2.101066e+03,2.684073e+03
2.112637e+03,2.651635e+03
2.124208e+03,2.617220e+03
2.135779e+03,2.608405e+03
2.147350e+03,2.568537e+03
2.158920e+03,2.546737e+03
2.170491e+03,2.503497e+03
2.182062e+03,2.448945e+03
2.193633e+03,2.435681e+03
2.205204e+03,2.437386e+03
2.216774e+03,2.370128e+03
2.228345e+03,2.344335e+03
2.239916e+03,2.303025e+03
2.251487e+03,2.295576e+03
2.263058e+03,2.262221e+03
2.274628e+03,2.228094e+03
2.286199e+03,2.170453e+03
2.297770e+03,2.178085e+03
2.309341e+03,2.126205e+03
2.320912e+03,2.114282e+03
2.332482e+03,2.072264e+03
2.344053e+03,2.079974e+03
2.355624e+03,2.020695e+03
2.367195e+03,1.992919e+03
2.378766e+03,1.966485e+03
2.390336e+03,1.952010e+03
2.401907e+03,1.914961e+03
2.413478e+03,1.894557e+03
2.425049e+03,1.886361e+03
2.436620e+03,1.869717e+03
2.448190e+03,1.822313e+03
2.459761e+03,1.808708e+03
2.471332e+03,1.772102e+03
2.482903e+03,1.773434e+03
2.494474e+03,1.753388e+03
2.506044e+03,1.723602e+03
2.517615e+03,1.692763e+03
2.529186e+03,1.682640e+03
2.540757e+03,1.657669e+03
2.552328e+03,1.632995e+03
2.563898e+03,1.646977e+03
2.575469e+03,1.616486e+03
2.587040e+03,1.571441e+03
2.598611e+03,1.552655e+03
2.610182e+03,1.560083e+03
2.621752e+03,1.506834e+03
2.633323e+03,1.498225e+03
2.644894e+03,1.506195e+03
2.656465e+03,1.479758e+03
2.668036e+03,1.448632e+03
2.679606e+03,1.462125e+03
2.691177e+03,1.426422e+03
2.702748e+03,1.401206e+03
2.714319e+03,1.392836e+03
2.725890e+03,1.395036e+03
2.737460e+03,1.378758e+03
2.749031e+03,1.357396e+03
2.760602e+03,1.326773e+03
2.772173e+03,1.335064e+03
2.783744e+03,1.314409e+03
2.795314e+03,1.308893e+03
2.806885e+03,1.284420e+03
2.818456e+03,1.270682e+03
2.830027e+03,1.266375e+03
2.841598e+03,1.253334e+03
2.853168e+03,1.233961e+03
2.864739e+03,1.230015e+03
2.876310e+03,1.241509e+03
2.887881e+03,1.249383e+03
2.899452e+03,1.253738e+03
2.911022e+03,1.229308e+03
2.922593e+03,1.199506e+03
2.934164e+03,1.168292e+03
2.945735e+03,1.165434e+03
2.957306e+03,1.223286e+03
2.968876e+03,1.159474e+03
2.980447e+03,1.142134e+03
2.992018e+03,1.098816e+03
3.003589e+03,1.120646e+03
3.015160e+03,1.110686e+03
3.026730e+03,1.131453e+03
3.038301e+03,1.114268e+03
3.049872e+03,1.064030e+03
3.061443e+03,1.099121e+03
3.073014e+03,1.097547e+03
3.084584e+03,1.071863e+03
3.096155e+03,1.069768e+03
3.107726e+03,1.046892e+03
3.119297e+03,1.069355e+03
3.130868e+03,1.079150e+03
3.142438e+03,1.083168e+03
3.154009e+03,1.048887e+03
3.165580e+03,1.055681e+03
3.177151e+03,1.075000e+03
3.188722e+03,1.071976e+03
3.200292e+03,1.123819e+03
3.211863e+03,0.000000e+00
3.223434e+03,0.000000e+00
3.235005e+03,0.000000e+00
3.246576e+03,0.000000e+00
3.258146e+03,0.000000e+00
3.269717e+03,0.000000e+00
3.281288e+03,0.000000e+00
3.292859e+03,0.000000e+00
3.304430e+03,0.000000e+00
3.316000e+03,0.000000e+00
3.327571e+03,0.000000e+00
3.339142e+03,0.000000e+00
3.350713e+03,0.000000e+00
3.362284e+03,0.000000e+00
3.373854e+03,0.000000e+00
3.385425e+03,0.000000e+00
3.396996e+03,0.000000e+00
3.408567e+03,0.000000e+00
3.420138e+03,0.000000e+00
3.431708e+03,0.000000e+00
3.443279e+03,0.000000e+00
3.454850e+03,0.000000e+00
3.466421e+03,0.000000e+00
3.477992e+03,0.000000e+00
3.489563e+03,0.000000e+00
3.500169e+03,0.000000e+00