File: RAMAN_data/23052023_r3/blue fibre15.CSV
9.931763e+01,0.000000e+00
1.108884e+02,0.000000e+00
1.224592e+02,0.000000e+00
1.340300e+02,0.000000e+00
1.456008e+02,0.000000e+00
1.571716e+02,0.000000e+00
1.687424e+02,0.000000e+00
1.803132e+02,0.000000e+00
1.918840e+02,0.000000e+00
2.034548e+02,3.797431e+03
2.150256e+02,3.818136e+03
2.265964e+02,3.851778e+03
2.381673e+02,3.911789e+03
2.497381e+02,3.961969e+03
2.613088e+02,4.006958e+03
2.728796e+02,4.053903e+03
2.844504e+02,4.100211e+03
2.960212e+02,4.090153e+03
3.075920e+02,4.103236e+03
3.191628e+02,4.125270e+03
3.307336e+02,4.158766e+03
3.423044e+02,4.171765e+03
3.538752e+02,4.179024e+03
3.654461e+02,4.197926e+03
3.770169e+02,4.238443e+03
3.885877e+02,4.237375e+03
4.001585e+02,4.233692e+03
4.117293e+02,4.238077e+03
4.233001e+02,4.253558e+03
4.348709e+02,4.265188e+03
4.464417e+02,4.259161e+03
4.580125e+02,4.267403e+03
4.695833e+02,4.272315e+03
4.811541e+02,4.279011e+03
4.927249e+02,4.304085e+03
5.042957e+02,4.289396e+03
5.158665e+02,4.297372e+03
5.274373e+02,4.309996e+03
5.390081e+02,4.334088e+03
5.505789e+02,4.365943e+03
5.621497e+02,4.357816e+03
5.737205e+02,4.265156e+03
5.852913e+02,4.251708e+03
5.968621e+02,4.286890e+03
6.084329e+02,4.323231e+03
6.200037e+02,4.244191e+03
6.315745e+02,4.223898e+03
6.431453e+02,4.190314e+03
6.547161e+02,4.199122e+03
6.662869e+02,4.173752e+03
6.778577e+02,4.172683e+03
6.894285e+02,4.137310e+03
7.009993e+02,4.095575e+03
7.125701e+02,4.094018e+03
7.241409e+02,4.064067e+03
7.357117e+02,4.039805e+03
7.472825e+02,4.029446e+03
7.588533e+02,4.026326e+03
7.704241e+02,3.984986e+03
7.819949e+02,3.995316e+03
7.935657e+02,3.961939e+03
8.051365e+02,3.911434e+03
8.167073e+02,3.891140e+03
8.282781e+02,3.839820e+03
8.398489e+02,3.856138e+03
8.514197e+02,3.819260e+03
8.629905e+02,3.797082e+03
8.745613e+02,3.761964e+03
8.861321e+02,3.741320e+03
8.977029e+02,3.736678e+03
9.092737e+02,3.670079e+03
9.208445e+02,3.638215e+03
9.324153e+02,3.606982e+03
9.439861e+02,3.577647e+03
9.555569e+02,3.547147e+03
9.671277e+02,3.515052e+03
9.786985e+02,3.501322e+03
9.902693e+02,3.463223e+03
1.001840e+03,3.438270e+03
1.013411e+03,3.398981e+03
1.024982e+03,3.371257e+03
1.036552e+03,3.357215e+03
1.048123e+03,3.316439e+03
1.059694e+03,3.311083e+03
1.071265e+03,3.305596e+03
1.082836e+03,3.297431e+03
1.094406e+03,3.246285e+03
1.105977e+03,3.204853e+03
1.117548e+03,3.191185e+03
1.129119e+03,3.144070e+03
1.140690e+03,3.115869e+03
1.152261e+03,3.101238e+03
1.163831e+03,3.072927e+03
1.175402e+03,3.031976e+03
1.186973e+03,3.016784e+03
1.198544e+03,2.996109e+03
1.210115e+03,2.963034e+03
1.221685e+03,2.952581e+03
1.233256e+03,2.905665e+03
1.244827e+03,2.899652e+03
1.256398e+03,2.865315e+03
1.267969e+03,2.833353e+03
1.279539e+03,2.806461e+03
1.291110e+03,2.779580e+03
1.302681e+03,2.746739e+03
1.314252e+03,2.737163e+03
1.325823e+03,2.743878e+03
1.337393e+03,2.729072e+03
1.348964e+03,2.685755e+03
1.360535e+03,2.660731e+03
1.372106e+03,2.640385e+03
1.383677e+03,2.618490e+03
1.395247e+03,2.594353e+03
1.406818e+03,2.569147e+03
1.418389e+03,2.546604e+03
1.429960e+03,2.537084e+03
1.441531e+03,2.515108e+03
1.453101e+03,2.512194e+03
1.464672e+03,2.470815e+03
1.476243e+03,2.461334e+03
1.487814e+03,2.424087e+03
1.499385e+03,2.427665e+03
1.510955e+03,2.408573e+03
1.522526e+03,2.373679e+03
1.534097e+03,2.356043e+03
1.545668e+03,2.338542e+03
1.557239e+03,2.345118e+03
1.568809e+03,2.404661e+03
1.580380e+03,2.342967e+03
1.591951e+03,2.270692e+03
1.603522e+03,2.274510e+03
1.615093e+03,2.235059e+03
1.626663e+03,2.233358e+03
1.638234e+03,2.194228e+03
1.649805e+03,2.164228e+03
1.661376e+03,2.154309e+03
1.672947e+03,2.137715e+03
1.684517e+03,2.112931e+03
1.696088e+03,2.101290e+03
1.707659e+03,2.093061e+03
1.719230e+03,2.060992e+03
1.730801e+03,2.039581e+03
1.742371e+03,2.031576e+03
1.753942e+03,2.030128e+03
1.765513e+03,1.998986e+03
1.777084e+03,1.987136e+03
1.788655e+03,1.958670e+03
1.800225e+03,1.947909e+03
1.811796e+03,1.909617e+03
1.823367e+03,1.919701e+03
1.834938e+03,1.899219e+03
1.846509e+03,1.884819e+03
1.858079e+03,1.857727e+03
1.869650e+03,1.842510e+03
1.881221e+03,1.813575e+03
1.892792e+03,1.790788e+03
1.904363e+03,1.783918e+03
1.915933e+03,1.760988e+03
1.927504e+03,1.747636e+03
1.939075e+03,1.721872e+03
1.950646e+03,1.704721e+03
1.962217e+03,1.697668e+03
1.973787e+03,1.673574e+03
1.985358e+03,1.644701e+03
1.996929e+03,1.639464e+03
2.008500e+03,1.629506e+03
2.020071e+03,1.594855e+03
2.031641e+03,1.589438e+03
2.043212e+03,1.557821e+03
2.054783e+03,1.539083e+03
2.066354e+03,1.536965e+03
2.077925e+03,1.506423e+03
2.089496e+03,1.506952e+03
2.101066e+03,1.493422e+03
2.112637e+03,1.457341e+03
2.124208e+03,1.458892e+03
2.135779e+03,1.435079e+03
2.147350e+03,1.394242e+03
2.158920e+03,1.387897e+03
2.170491e+03,1.394760e+03
2.182062e+03,1.348630e+03
2.193633e+03,1.334489e+03
2.205204e+03,1.334459e+03
2.216774e+03,1.311647e+03
2.228345e+03,1.304969e+03
2.239916e+03,1.276555e+03
2.251487e+03,1.254359e+03
2.263058e+03,1.255470e+03
2.274628e+03,1.218620e+03
2.286199e+03,1.180517e+03
2.297770e+03,1.200091e+03
2.309341e+03,1.185018e+03
2.320912e+03,1.149846e+03
2.332482e+03,1.151766e+03
2.344053e+03,1.141765e+03
2.355624e+03,1.103415e+03
2.367195e+03,1.093874e+03
2.378766e+03,1.093639e+03
2.390336e+03,1.075539e+03
2.401907e+03,1.054558e+03
2.413478e+03,1.051959e+03
2.425049e+03,1.022791e+03
2.436620e+03,1.023482e+03
2.448190e+03,1.010360e+03
2.459761e+03,9.996199e+02
2.471332e+03,9.724234e+02
2.482903e+03,9.693655e+02
2.494474e+03,9.399276e+02
2.506044e+03,9.411913e+02
2.517615e+03,9.371061e+02
2.529186e+03,9.147256e+02
2.540757e+03,8.950974e+02
2.552328e+03,9.056184e+02
2.563898e+03,9.055964e+02
2.575469e+03,8.784922e+02
2.587040e+03,8.609464e+02
2.598611e+03,8.662560e+02
2.610182e+03,8.574207e+02
2.621752e+03,8.404279e+02
2.633323e+03,8.257167e+02
2.644894e+03,8.314196e+02
2.656465e+03,8.118162e+02
2.668036e+03,8.127423e+02
2.679606e+03,7.844219e+02
2.691177e+03,7.870335e+02
2.702748e+03,7.650068e+02
2.714319e+03,7.724939e+02
2.725890e+03,7.782864e+02
2.737460e+03,7.495291e+02
2.749031e+03,7.477040e+02
2.760602e+03,7.454615e+02
2.772173e+03,7.387019e+02
2.783744e+03,7.284041e+02
2.795314e+03,7.332490e+02
2.806885e+03,7.207269e+02
2.818456e+03,7.199991e+02
2.830027e+03,7.109802e+02
2.841598e+03,6.897664e+02
2.853168e+03,6.893612e+02
2.864739e+03,6.870783e+02
2.876310e+03,6.814804e+02
2.887881e+03,6.926131e+02
2.899452e+03,6.910107e+02
2.911022e+03,6.832390e+02
2.922593e+03,6.570023e+02
2.934164e+03,6.823227e+02
2.945735e+03,6.478557e+02
2.957306e+03,6.981041e+02
2.968876e+03,6.418079e+02
2.980447e+03,6.483359e+02
2.992018e+03,6.265885e+02
3.003589e+03,6.114016e+02
3.015160e+03,6.270511e+02
3.026730e+03,5.988141e+02
3.038301e+03,6.198663e+02
3.049872e+03,5.864662e+02
3.061443e+03,6.108385e+02
3.073014e+03,5.983602e+02
3.084584e+03,6.078935e+02
3.096155e+03,5.769705e+02
3.107726e+03,5.786443e+02
3.119297e+03,5.963342e+02
3.130868e+03,6.196978e+02
3.142438e+03,6.349070e+02
3.154009e+03,5.934557e+02
3.165580e+03,5.932323e+02
3.177151e+03,6.270286e+02
3.188722e+03,6.105193e+02
3.200292e+03,6.380408e+02
3.211863e+03,0.000000e+00
3.223434e+03,0.000000e+00
3.235005e+03,0.000000e+00
3.246576e+03,0.000000e+00
3.258146e+03,0.000000e+00
3.269717e+03,0.000000e+00
3.281288e+03,0.000000e+00
3.292859e+03,0.000000e+00
3.304430e+03,0.000000e+00
3.316000e+03,0.000000e+00
3.327571e+03,0.000000e+00
3.339142e+03,0.000000e+00
3.350713e+03,0.000000e+00
3.362284e+03,0.000000e+00
3.373854e+03,0.000000e+00
3.385425e+03,0.000000e+00
3.396996e+03,0.000000e+00
3.408567e+03,0.000000e+00
3.420138e+03,0.000000e+00
3.431708e+03,0.000000e+00
3.443279e+03,0.000000e+00
3.454850e+03,0.000000e+00
3.466421e+03,0.000000e+00
3.477992e+03,0.000000e+00
3.489563e+03,0.000000e+00
3.500169e+03,0.000000e+00