File: RAMAN_data/23052023_r3/blue fibre9.CSV
9.931763e+01,0.000000e+00
1.108884e+02,0.000000e+00
1.224592e+02,0.000000e+00
1.340300e+02,0.000000e+00
1.456008e+02,0.000000e+00
1.571716e+02,0.000000e+00
1.687424e+02,0.000000e+00
1.803132e+02,0.000000e+00
1.918840e+02,0.000000e+00
2.034548e+02,3.735760e+03
2.150256e+02,3.734805e+03
2.265964e+02,3.772780e+03
2.381673e+02,3.824703e+03
2.497381e+02,3.862200e+03
2.613088e+02,3.879448e+03
2.728796e+02,3.933067e+03
2.844504e+02,3.962289e+03
2.960212e+02,3.973870e+03
3.075920e+02,3.961786e+03
3.191628e+02,3.982262e+03
3.307336e+02,4.004722e+03
3.423044e+02,4.042099e+03
3.538752e+02,4.038806e+03
3.654461e+02,4.036813e+03
3.770169e+02,4.082752e+03
3.885877e+02,4.088756e+03
4.001585e+02,4.078176e+03
4.117293e+02,4.080032e+03
4.233001e+02,4.094784e+03
4.348709e+02,4.108741e+03
4.464417e+02,4.107197e+03
4.580125e+02,4.109667e+03
4.695833e+02,4.099310e+03
4.811541e+02,4.097348e+03
4.927249e+02,4.111477e+03
5.042957e+02,4.117928e+03
5.158665e+02,4.113389e+03
5.274373e+02,4.117053e+03
5.390081e+02,4.121286e+03
5.505789e+02,4.130935e+03
5.621497e+02,4.115915e+03
5.737205e+02,4.087119e+03
5.852913e+02,4.066302e+03
5.968621e+02,4.077686e+03
6.084329e+02,4.087796e+03
6.200037e+02,4.043507e+03
6.315745e+02,4.047327e+03
6.431453e+02,4.019905e+03
6.547161e+02,4.006434e+03
6.662869e+02,3.967533e+03
6.778577e+02,3.943928e+03
6.894285e+02,3.942245e+03
7.009993e+02,3.917627e+03
7.125701e+02,3.902525e+03
7.241409e+02,3.883820e+03
7.357117e+02,3.846245e+03
7.472825e+02,3.846716e+03
7.588533e+02,3.825343e+03
7.704241e+02,3.804438e+03
7.819949e+02,3.785134e+03
7.935657e+02,3.762062e+03
8.051365e+02,3.743965e+03
8.167073e+02,3.708823e+03
8.282781e+02,3.697636e+03
8.398489e+02,3.681811e+03
8.514197e+02,3.646967e+03
8.629905e+02,3.616863e+03
8.745613e+02,3.590002e+03
8.861321e+02,3.592971e+03
8.977029e+02,3.547676e+03
9.092737e+02,3.521583e+03
9.208445e+02,3.476845e+03
9.324153e+02,3.473395e+03
9.439861e+02,3.422003e+03
9.555569e+02,3.406297e+03
9.671277e+02,3.379801e+03
9.786985e+02,3.351063e+03
9.902693e+02,3.345084e+03
1.001840e+03,3.297020e+03
1.013411e+03,3.285906e+03
1.024982e+03,3.261062e+03
1.036552e+03,3.232331e+03
1.048123e+03,3.212448e+03
1.059694e+03,3.171217e+03
1.071265e+03,3.180194e+03
1.082836e+03,3.161537e+03
1.094406e+03,3.133768e+03
1.105977e+03,3.094635e+03
1.117548e+03,3.061804e+03
1.129119e+03,3.027265e+03
1.140690e+03,3.016714e+03
1.152261e+03,2.993971e+03
1.163831e+03,2.951780e+03
1.175402e+03,2.933301e+03
1.186973e+03,2.902671e+03
1.198544e+03,2.891674e+03
1.210115e+03,2.847439e+03
1.221685e+03,2.822745e+03
1.233256e+03,2.800817e+03
1.244827e+03,2.785285e+03
1.256398e+03,2.771323e+03
1.267969e+03,2.739114e+03
1.279539e+03,2.723380e+03
1.291110e+03,2.712274e+03
1.302681e+03,2.683643e+03
1.314252e+03,2.667803e+03
1.325823e+03,2.640405e+03
1.337393e+03,2.623958e+03
1.348964e+03,2.605517e+03
1.360535e+03,2.589122e+03
1.372106e+03,2.567718e+03
1.383677e+03,2.552907e+03
1.395247e+03,2.515232e+03
1.406818e+03,2.487944e+03
1.418389e+03,2.482336e+03
1.429960e+03,2.456875e+03
1.441531e+03,2.439487e+03
1.453101e+03,2.428352e+03
1.464672e+03,2.401469e+03
1.476243e+03,2.386229e+03
1.487814e+03,2.370955e+03
1.499385e+03,2.347537e+03
1.510955e+03,2.343638e+03
1.522526e+03,2.312634e+03
1.534097e+03,2.302339e+03
1.545668e+03,2.269503e+03
1.557239e+03,2.280269e+03
1.568809e+03,2.312509e+03
1.580380e+03,2.280965e+03
1.591951e+03,2.221124e+03
1.603522e+03,2.191853e+03
1.615093e+03,2.188914e+03
1.626663e+03,2.171953e+03
1.638234e+03,2.149337e+03
1.649805e+03,2.131317e+03
1.661376e+03,2.106629e+03
1.672947e+03,2.086756e+03
1.684517e+03,2.067181e+03
1.696088e+03,2.061349e+03
1.707659e+03,2.040761e+03
1.719230e+03,2.029627e+03
1.730801e+03,2.003440e+03
1.742371e+03,1.992408e+03
1.753942e+03,1.962620e+03
1.765513e+03,1.964307e+03
1.777084e+03,1.938488e+03
1.788655e+03,1.923196e+03
1.800225e+03,1.913259e+03
1.811796e+03,1.884580e+03
1.823367e+03,1.865173e+03
1.834938e+03,1.856988e+03
1.846509e+03,1.858148e+03
1.858079e+03,1.830954e+03
1.869650e+03,1.810121e+03
1.881221e+03,1.792585e+03
1.892792e+03,1.780159e+03
1.904363e+03,1.746895e+03
1.915933e+03,1.724667e+03
1.927504e+03,1.709470e+03
1.939075e+03,1.699400e+03
1.950646e+03,1.700272e+03
1.962217e+03,1.668412e+03
1.973787e+03,1.655763e+03
1.985358e+03,1.641347e+03
1.996929e+03,1.642132e+03
2.008500e+03,1.618110e+03
2.020071e+03,1.595275e+03
2.031641e+03,1.573149e+03
2.043212e+03,1.554200e+03
2.054783e+03,1.520877e+03
2.066354e+03,1.523994e+03
2.077925e+03,1.525289e+03
2.089496e+03,1.490332e+03
2.101066e+03,1.474814e+03
2.112637e+03,1.435846e+03
2.124208e+03,1.452698e+03
2.135779e+03,1.418684e+03
2.147350e+03,1.377974e+03
2.158920e+03,1.384753e+03
2.170491e+03,1.372319e+03
2.182062e+03,1.364498e+03
2.193633e+03,1.316318e+03
2.205204e+03,1.336503e+03
2.216774e+03,1.313422e+03
2.228345e+03,1.285779e+03
2.239916e+03,1.264259e+03
2.251487e+03,1.259440e+03
2.263058e+03,1.245303e+03
2.274628e+03,1.229768e+03
2.286199e+03,1.210279e+03
2.297770e+03,1.201457e+03
2.309341e+03,1.187907e+03
2.320912e+03,1.165586e+03
2.332482e+03,1.161646e+03
2.344053e+03,1.147242e+03
2.355624e+03,1.119930e+03
2.367195e+03,1.101637e+03
2.378766e+03,1.094337e+03
2.390336e+03,1.097085e+03
2.401907e+03,1.071373e+03
2.413478e+03,1.049124e+03
2.425049e+03,1.044941e+03
2.436620e+03,1.035494e+03
2.448190e+03,1.017561e+03
2.459761e+03,1.006938e+03
2.471332e+03,9.891645e+02
2.482903e+03,9.711691e+02
2.494474e+03,9.721166e+02
2.506044e+03,9.709949e+02
2.517615e+03,9.368105e+02
2.529186e+03,9.391631e+02
2.540757e+03,9.173535e+02
2.552328e+03,9.102269e+02
2.563898e+03,9.129114e+02
2.575469e+03,8.911729e+02
2.587040e+03,8.703391e+02
2.598611e+03,8.709318e+02
2.610182e+03,8.667667e+02
2.621752e+03,8.364389e+02
2.633323e+03,8.342445e+02
2.644894e+03,8.305507e+02
2.656465e+03,8.263549e+02
2.668036e+03,8.351713e+02
2.679606e+03,8.138517e+02
2.691177e+03,7.996771e+02
2.702748e+03,7.799013e+02
2.714319e+03,7.804764e+02
2.725890e+03,7.742582e+02
2.737460e+03,7.656455e+02
2.749031e+03,7.629596e+02
2.760602e+03,7.633800e+02
2.772173e+03,7.655807e+02
2.783744e+03,7.386373e+02
2.795314e+03,7.373222e+02
2.806885e+03,7.346866e+02
2.818456e+03,7.426969e+02
2.830027e+03,7.118746e+02
2.841598e+03,7.202811e+02
2.853168e+03,7.102435e+02
2.864739e+03,7.126430e+02
2.876310e+03,7.305420e+02
2.887881e+03,7.094941e+02
2.899452e+03,7.224710e+02
2.911022e+03,7.247446e+02
2.922593e+03,6.935599e+02
2.934164e+03,6.748560e+02
2.945735e+03,6.794248e+02
2.957306e+03,7.088420e+02
2.968876e+03,6.281217e+02
2.980447e+03,6.566590e+02
2.992018e+03,6.137050e+02
3.003589e+03,6.417567e+02
3.015160e+03,6.472531e+02
3.026730e+03,6.321476e+02
3.038301e+03,6.322122e+02
3.049872e+03,6.251258e+02
3.061443e+03,6.006064e+02
3.073014e+03,6.249594e+02
3.084584e+03,5.989692e+02
3.096155e+03,6.023226e+02
3.107726e+03,6.166550e+02
3.119297e+03,5.899880e+02
3.130868e+03,6.412694e+02
3.142438e+03,6.079354e+02
3.154009e+03,6.100292e+02
3.165580e+03,5.845061e+02
3.177151e+03,6.274941e+02
3.188722e+03,6.283301e+02
3.200292e+03,6.577783e+02
3.211863e+03,0.000000e+00
3.223434e+03,0.000000e+00
3.235005e+03,0.000000e+00
3.246576e+03,0.000000e+00
3.258146e+03,0.000000e+00
3.269717e+03,0.000000e+00
3.281288e+03,0.000000e+00
3.292859e+03,0.000000e+00
3.304430e+03,0.000000e+00
3.316000e+03,0.000000e+00
3.327571e+03,0.000000e+00
3.339142e+03,0.000000e+00
3.350713e+03,0.000000e+00
3.362284e+03,0.000000e+00
3.373854e+03,0.000000e+00
3.385425e+03,0.000000e+00
3.396996e+03,0.000000e+00
3.408567e+03,0.000000e+00
3.420138e+03,0.000000e+00
3.431708e+03,0.000000e+00
3.443279e+03,0.000000e+00
3.454850e+03,0.000000e+00
3.466421e+03,0.000000e+00
3.477992e+03,0.000000e+00
3.489563e+03,0.000000e+00
3.500169e+03,0.000000e+00