File: RAMAN_data/23052023_r3/blue fibre7.CSV
9.931763e+01,0.000000e+00
1.108884e+02,0.000000e+00
1.224592e+02,0.000000e+00
1.340300e+02,0.000000e+00
1.456008e+02,0.000000e+00
1.571716e+02,0.000000e+00
1.687424e+02,0.000000e+00
1.803132e+02,0.000000e+00
1.918840e+02,0.000000e+00
2.034548e+02,6.347010e+03
2.150256e+02,6.373924e+03
2.265964e+02,6.447619e+03
2.381673e+02,6.538817e+03
2.497381e+02,6.652495e+03
2.613088e+02,6.704877e+03
2.728796e+02,6.822561e+03
2.844504e+02,6.877490e+03
2.960212e+02,6.900998e+03
3.075920e+02,6.911450e+03
3.191628e+02,6.974789e+03
3.307336e+02,7.040695e+03
3.423044e+02,7.079932e+03
3.538752e+02,7.119838e+03
3.654461e+02,7.145885e+03
3.770169e+02,7.185432e+03
3.885877e+02,7.181737e+03
4.001585e+02,7.194984e+03
4.117293e+02,7.236128e+03
4.233001e+02,7.247084e+03
4.348709e+02,7.267389e+03
4.464417e+02,7.253872e+03
4.580125e+02,7.281156e+03
4.695833e+02,7.264443e+03
4.811541e+02,7.267606e+03
4.927249e+02,7.246330e+03
5.042957e+02,7.273851e+03
5.158665e+02,7.266068e+03
5.274373e+02,7.271512e+03
5.390081e+02,7.298731e+03
5.505789e+02,7.332304e+03
5.621497e+02,7.314300e+03
5.737205e+02,7.213858e+03
5.852913e+02,7.184054e+03
5.968621e+02,7.221385e+03
6.084329e+02,7.212910e+03
6.200037e+02,7.137330e+03
6.315745e+02,7.126428e+03
6.431453e+02,7.083496e+03
6.547161e+02,7.035043e+03
6.662869e+02,7.001415e+03
6.778577e+02,6.954844e+03
6.894285e+02,6.906540e+03
7.009993e+02,6.874532e+03
7.125701e+02,6.833912e+03
7.241409e+02,6.780807e+03
7.357117e+02,6.708835e+03
7.472825e+02,6.683867e+03
7.588533e+02,6.658803e+03
7.704241e+02,6.615664e+03
7.819949e+02,6.556759e+03
7.935657e+02,6.546201e+03
8.051365e+02,6.448035e+03
8.167073e+02,6.385349e+03
8.282781e+02,6.346579e+03
8.398489e+02,6.291588e+03
8.514197e+02,6.264635e+03
8.629905e+02,6.202827e+03
8.745613e+02,6.145911e+03
8.861321e+02,6.124580e+03
8.977029e+02,6.050003e+03
9.092737e+02,5.984978e+03
9.208445e+02,5.919084e+03
9.324153e+02,5.898468e+03
9.439861e+02,5.834287e+03
9.555569e+02,5.775537e+03
9.671277e+02,5.719619e+03
9.786985e+02,5.676674e+03
9.902693e+02,5.604545e+03
1.001840e+03,5.540156e+03
1.013411e+03,5.484564e+03
1.024982e+03,5.445367e+03
1.036552e+03,5.420951e+03
1.048123e+03,5.350156e+03
1.059694e+03,5.290572e+03
1.071265e+03,5.301960e+03
1.082836e+03,5.235771e+03
1.094406e+03,5.203369e+03
1.105977e+03,5.121993e+03
1.117548e+03,5.069008e+03
1.129119e+03,5.022802e+03
1.140690e+03,4.980240e+03
1.152261e+03,4.929266e+03
1.163831e+03,4.871167e+03
1.175402e+03,4.824030e+03
1.186973e+03,4.775615e+03
1.198544e+03,4.751362e+03
1.210115e+03,4.699958e+03
1.221685e+03,4.663317e+03
1.233256e+03,4.617666e+03
1.244827e+03,4.584529e+03
1.256398e+03,4.503439e+03
1.267969e+03,4.467383e+03
1.279539e+03,4.460974e+03
1.291110e+03,4.418562e+03
1.302681e+03,4.370483e+03
1.314252e+03,4.322760e+03
1.325823e+03,4.310191e+03
1.337393e+03,4.280901e+03
1.348964e+03,4.249377e+03
1.360535e+03,4.200759e+03
1.372106e+03,4.173483e+03
1.383677e+03,4.160185e+03
1.395247e+03,4.099160e+03
1.406818e+03,4.061207e+03
1.418389e+03,4.061870e+03
1.429960e+03,4.034634e+03
1.441531e+03,3.980328e+03
1.453101e+03,3.967198e+03
1.464672e+03,3.922385e+03
1.476243e+03,3.891585e+03
1.487814e+03,3.870815e+03
1.499385e+03,3.813858e+03
1.510955e+03,3.801301e+03
1.522526e+03,3.761438e+03
1.534097e+03,3.741517e+03
1.545668e+03,3.696281e+03
1.557239e+03,3.720134e+03
1.568809e+03,3.809993e+03
1.580380e+03,3.711040e+03
1.591951e+03,3.608085e+03
1.603522e+03,3.574948e+03
1.615093e+03,3.534418e+03
1.626663e+03,3.516930e+03
1.638234e+03,3.483280e+03
1.649805e+03,3.428833e+03
1.661376e+03,3.413821e+03
1.672947e+03,3.377836e+03
1.684517e+03,3.368534e+03
1.696088e+03,3.324952e+03
1.707659e+03,3.305759e+03
1.719230e+03,3.260904e+03
1.730801e+03,3.206677e+03
1.742371e+03,3.196600e+03
1.753942e+03,3.134914e+03
1.765513e+03,3.142015e+03
1.777084e+03,3.094665e+03
1.788655e+03,3.070683e+03
1.800225e+03,3.054332e+03
1.811796e+03,3.001190e+03
1.823367e+03,2.939693e+03
1.834938e+03,2.942158e+03
1.846509e+03,2.930714e+03
1.858079e+03,2.913260e+03
1.869650e+03,2.868531e+03
1.881221e+03,2.806372e+03
1.892792e+03,2.806717e+03
1.904363e+03,2.753268e+03
1.915933e+03,2.720160e+03
1.927504e+03,2.699606e+03
1.939075e+03,2.656325e+03
1.950646e+03,2.657313e+03
1.962217e+03,2.625828e+03
1.973787e+03,2.574013e+03
1.985358e+03,2.531355e+03
1.996929e+03,2.507929e+03
2.008500e+03,2.487052e+03
2.020071e+03,2.456304e+03
2.031641e+03,2.425243e+03
2.043212e+03,2.381061e+03
2.054783e+03,2.368761e+03
2.066354e+03,2.336781e+03
2.077925e+03,2.321390e+03
2.089496e+03,2.296875e+03
2.101066e+03,2.266267e+03
2.112637e+03,2.216146e+03
2.124208e+03,2.208329e+03
2.135779e+03,2.178739e+03
2.147350e+03,2.112336e+03
2.158920e+03,2.095765e+03
2.170491e+03,2.084169e+03
2.182062e+03,2.067761e+03
2.193633e+03,2.005144e+03
2.205204e+03,2.016357e+03
2.216774e+03,1.984777e+03
2.228345e+03,1.928713e+03
2.239916e+03,1.911341e+03
2.251487e+03,1.900762e+03
2.263058e+03,1.873880e+03
2.274628e+03,1.836557e+03
2.286199e+03,1.780002e+03
2.297770e+03,1.790044e+03
2.309341e+03,1.769343e+03
2.320912e+03,1.757215e+03
2.332482e+03,1.716959e+03
2.344053e+03,1.710953e+03
2.355624e+03,1.682078e+03
2.367195e+03,1.646787e+03
2.378766e+03,1.635393e+03
2.390336e+03,1.604087e+03
2.401907e+03,1.584436e+03
2.413478e+03,1.553549e+03
2.425049e+03,1.557510e+03
2.436620e+03,1.529723e+03
2.448190e+03,1.504805e+03
2.459761e+03,1.499442e+03
2.471332e+03,1.487631e+03
2.482903e+03,1.460853e+03
2.494474e+03,1.438656e+03
2.506044e+03,1.429785e+03
2.517615e+03,1.402003e+03
2.529186e+03,1.381921e+03
2.540757e+03,1.359326e+03
2.552328e+03,1.350178e+03
2.563898e+03,1.331078e+03
2.575469e+03,1.315711e+03
2.587040e+03,1.309547e+03
2.598611e+03,1.281872e+03
2.610182e+03,1.276211e+03
2.621752e+03,1.257259e+03
2.633323e+03,1.254281e+03
2.644894e+03,1.229703e+03
2.656465e+03,1.209102e+03
2.668036e+03,1.226733e+03
2.679606e+03,1.188446e+03
2.691177e+03,1.172264e+03
2.702748e+03,1.166160e+03
2.714319e+03,1.149070e+03
2.725890e+03,1.138116e+03
2.737460e+03,1.129921e+03
2.749031e+03,1.118579e+03
2.760602e+03,1.117810e+03
2.772173e+03,1.074735e+03
2.783744e+03,1.073628e+03
2.795314e+03,1.036273e+03
2.806885e+03,1.042309e+03
2.818456e+03,1.052047e+03
2.830027e+03,1.030629e+03
2.841598e+03,1.029185e+03
2.853168e+03,1.034063e+03
2.864739e+03,1.035483e+03
2.876310e+03,1.013834e+03
2.887881e+03,1.021814e+03
2.899452e+03,1.011567e+03
2.911022e+03,9.804936e+02
2.922593e+03,9.727890e+02
2.934164e+03,9.530856e+02
2.945735e+03,9.473442e+02
2.957306e+03,9.965803e+02
2.968876e+03,9.490709e+02
2.980447e+03,9.365228e+02
2.992018e+03,9.292693e+02
3.003589e+03,9.082233e+02
3.015160e+03,8.972464e+02
3.026730e+03,9.066599e+02
3.038301e+03,8.790303e+02
3.049872e+03,8.900090e+02
3.061443e+03,8.670621e+02
3.073014e+03,8.986815e+02
3.084584e+03,8.682567e+02
3.096155e+03,8.759501e+02
3.107726e+03,8.270642e+02
3.119297e+03,9.055651e+02
3.130868e+03,8.512229e+02
3.142438e+03,8.807892e+02
3.154009e+03,8.627846e+02
3.165580e+03,8.673898e+02
3.177151e+03,8.701129e+02
3.188722e+03,8.641309e+02
3.200292e+03,9.037752e+02
3.211863e+03,0.000000e+00
3.223434e+03,0.000000e+00
3.235005e+03,0.000000e+00
3.246576e+03,0.000000e+00
3.258146e+03,0.000000e+00
3.269717e+03,0.000000e+00
3.281288e+03,0.000000e+00
3.292859e+03,0.000000e+00
3.304430e+03,0.000000e+00
3.316000e+03,0.000000e+00
3.327571e+03,0.000000e+00
3.339142e+03,0.000000e+00
3.350713e+03,0.000000e+00
3.362284e+03,0.000000e+00
3.373854e+03,0.000000e+00
3.385425e+03,0.000000e+00
3.396996e+03,0.000000e+00
3.408567e+03,0.000000e+00
3.420138e+03,0.000000e+00
3.431708e+03,0.000000e+00
3.443279e+03,0.000000e+00
3.454850e+03,0.000000e+00
3.466421e+03,0.000000e+00
3.477992e+03,0.000000e+00
3.489563e+03,0.000000e+00
3.500169e+03,0.000000e+00