File: RAMAN_data/23052023_r3/blue fibre10.CSV
9.931763e+01,0.000000e+00
1.108884e+02,0.000000e+00
1.224592e+02,0.000000e+00
1.340300e+02,0.000000e+00
1.456008e+02,0.000000e+00
1.571716e+02,0.000000e+00
1.687424e+02,0.000000e+00
1.803132e+02,0.000000e+00
1.918840e+02,0.000000e+00
2.034548e+02,7.591192e+03
2.150256e+02,7.688266e+03
2.265964e+02,7.798915e+03
2.381673e+02,7.936742e+03
2.497381e+02,8.109132e+03
2.613088e+02,8.198838e+03
2.728796e+02,8.369614e+03
2.844504e+02,8.490447e+03
2.960212e+02,8.488333e+03
3.075920e+02,8.575475e+03
3.191628e+02,8.651017e+03
3.307336e+02,8.734937e+03
3.423044e+02,8.796724e+03
3.538752e+02,8.887313e+03
3.654461e+02,8.943127e+03
3.770169e+02,9.048881e+03
3.885877e+02,9.084662e+03
4.001585e+02,9.107975e+03
4.117293e+02,9.162024e+03
4.233001e+02,9.219572e+03
4.348709e+02,9.257388e+03
4.464417e+02,9.288915e+03
4.580125e+02,9.294075e+03
4.695833e+02,9.334808e+03
4.811541e+02,9.368710e+03
4.927249e+02,9.387659e+03
5.042957e+02,9.409286e+03
5.158665e+02,9.426563e+03
5.274373e+02,9.479366e+03
5.390081e+02,9.535701e+03
5.505789e+02,9.576108e+03
5.621497e+02,9.623814e+03
5.737205e+02,9.479723e+03
5.852913e+02,9.418524e+03
5.968621e+02,9.547299e+03
6.084329e+02,9.555354e+03
6.200037e+02,9.438660e+03
6.315745e+02,9.405440e+03
6.431453e+02,9.352833e+03
6.547161e+02,9.347610e+03
6.662869e+02,9.321730e+03
6.778577e+02,9.252391e+03
6.894285e+02,9.207373e+03
7.009993e+02,9.188849e+03
7.125701e+02,9.158611e+03
7.241409e+02,9.090031e+03
7.357117e+02,9.049624e+03
7.472825e+02,9.010246e+03
7.588533e+02,8.966806e+03
7.704241e+02,8.892905e+03
7.819949e+02,8.885690e+03
7.935657e+02,8.838229e+03
8.051365e+02,8.744655e+03
8.167073e+02,8.628504e+03
8.282781e+02,8.592447e+03
8.398489e+02,8.567146e+03
8.514197e+02,8.474731e+03
8.629905e+02,8.422447e+03
8.745613e+02,8.385830e+03
8.861321e+02,8.312848e+03
8.977029e+02,8.240649e+03
9.092737e+02,8.149165e+03
9.208445e+02,8.080157e+03
9.324153e+02,8.033357e+03
9.439861e+02,7.905938e+03
9.555569e+02,7.830257e+03
9.671277e+02,7.784532e+03
9.786985e+02,7.753073e+03
9.902693e+02,7.632041e+03
1.001840e+03,7.529373e+03
1.013411e+03,7.509225e+03
1.024982e+03,7.455549e+03
1.036552e+03,7.371993e+03
1.048123e+03,7.299839e+03
1.059694e+03,7.245756e+03
1.071265e+03,7.220188e+03
1.082836e+03,7.194542e+03
1.094406e+03,7.078312e+03
1.105977e+03,7.013408e+03
1.117548e+03,6.971577e+03
1.129119e+03,6.871479e+03
1.140690e+03,6.834468e+03
1.152261e+03,6.749390e+03
1.163831e+03,6.691418e+03
1.175402e+03,6.597861e+03
1.186973e+03,6.556218e+03
1.198544e+03,6.522608e+03
1.210115e+03,6.452335e+03
1.221685e+03,6.427447e+03
1.233256e+03,6.333131e+03
1.244827e+03,6.291978e+03
1.256398e+03,6.241331e+03
1.267969e+03,6.162635e+03
1.279539e+03,6.081850e+03
1.291110e+03,6.061892e+03
1.302681e+03,5.979524e+03
1.314252e+03,5.935492e+03
1.325823e+03,5.899447e+03
1.337393e+03,5.870278e+03
1.348964e+03,5.834445e+03
1.360535e+03,5.791219e+03
1.372106e+03,5.712088e+03
1.383677e+03,5.678170e+03
1.395247e+03,5.610347e+03
1.406818e+03,5.582250e+03
1.418389e+03,5.514098e+03
1.429960e+03,5.503496e+03
1.441531e+03,5.440680e+03
1.453101e+03,5.440735e+03
1.464672e+03,5.392999e+03
1.476243e+03,5.324319e+03
1.487814e+03,5.305907e+03
1.499385e+03,5.223802e+03
1.510955e+03,5.234602e+03
1.522526e+03,5.180495e+03
1.534097e+03,5.127318e+03
1.545668e+03,5.048456e+03
1.557239e+03,5.062536e+03
1.568809e+03,5.268026e+03
1.580380e+03,5.108465e+03
1.591951e+03,4.934481e+03
1.603522e+03,4.917155e+03
1.615093e+03,4.854844e+03
1.626663e+03,4.821542e+03
1.638234e+03,4.749383e+03
1.649805e+03,4.690268e+03
1.661376e+03,4.647395e+03
1.672947e+03,4.640496e+03
1.684517e+03,4.562764e+03
1.696088e+03,4.559533e+03
1.707659e+03,4.504103e+03
1.719230e+03,4.451875e+03
1.730801e+03,4.401521e+03
1.742371e+03,4.385456e+03
1.753942e+03,4.333876e+03
1.765513e+03,4.249296e+03
1.777084e+03,4.210427e+03
1.788655e+03,4.159453e+03
1.800225e+03,4.147603e+03
1.811796e+03,4.099579e+03
1.823367e+03,4.053113e+03
1.834938e+03,4.022510e+03
1.846509e+03,3.999000e+03
1.858079e+03,3.932591e+03
1.869650e+03,3.914236e+03
1.881221e+03,3.858631e+03
1.892792e+03,3.818450e+03
1.904363e+03,3.756680e+03
1.915933e+03,3.715737e+03
1.927504e+03,3.673553e+03
1.939075e+03,3.653155e+03
1.950646e+03,3.581833e+03
1.962217e+03,3.551202e+03
1.973787e+03,3.516102e+03
1.985358e+03,3.466448e+03
1.996929e+03,3.426320e+03
2.008500e+03,3.385077e+03
2.020071e+03,3.341147e+03
2.031641e+03,3.307888e+03
2.043212e+03,3.270721e+03
2.054783e+03,3.202697e+03
2.066354e+03,3.171753e+03
2.077925e+03,3.164094e+03
2.089496e+03,3.124042e+03
2.101066e+03,3.069971e+03
2.112637e+03,3.040226e+03
2.124208e+03,3.008352e+03
2.135779e+03,2.954691e+03
2.147350e+03,2.892878e+03
2.158920e+03,2.880072e+03
2.170491e+03,2.860023e+03
2.182062e+03,2.824058e+03
2.193633e+03,2.766721e+03
2.205204e+03,2.774093e+03
2.216774e+03,2.746177e+03
2.228345e+03,2.659318e+03
2.239916e+03,2.630297e+03
2.251487e+03,2.594204e+03
2.263058e+03,2.569047e+03
2.274628e+03,2.521702e+03
2.286199e+03,2.464615e+03
2.297770e+03,2.461628e+03
2.309341e+03,2.438089e+03
2.320912e+03,2.390009e+03
2.332482e+03,2.361619e+03
2.344053e+03,2.337941e+03
2.355624e+03,2.318386e+03
2.367195e+03,2.284956e+03
2.378766e+03,2.243774e+03
2.390336e+03,2.202604e+03
2.401907e+03,2.202623e+03
2.413478e+03,2.160796e+03
2.425049e+03,2.127402e+03
2.436620e+03,2.111056e+03
2.448190e+03,2.082839e+03
2.459761e+03,2.081213e+03
2.471332e+03,2.028800e+03
2.482903e+03,1.987501e+03
2.494474e+03,1.979755e+03
2.506044e+03,1.946292e+03
2.517615e+03,1.919833e+03
2.529186e+03,1.901479e+03
2.540757e+03,1.856743e+03
2.552328e+03,1.851863e+03
2.563898e+03,1.845418e+03
2.575469e+03,1.811702e+03
2.587040e+03,1.779647e+03
2.598611e+03,1.746356e+03
2.610182e+03,1.756657e+03
2.621752e+03,1.737337e+03
2.633323e+03,1.700494e+03
2.644894e+03,1.676743e+03
2.656465e+03,1.661502e+03
2.668036e+03,1.657961e+03
2.679606e+03,1.632908e+03
2.691177e+03,1.625354e+03
2.702748e+03,1.624684e+03
2.714319e+03,1.569853e+03
2.725890e+03,1.558163e+03
2.737460e+03,1.518838e+03
2.749031e+03,1.517301e+03
2.760602e+03,1.492556e+03
2.772173e+03,1.458069e+03
2.783744e+03,1.485250e+03
2.795314e+03,1.452925e+03
2.806885e+03,1.434576e+03
2.818456e+03,1.405233e+03
2.830027e+03,1.414644e+03
2.841598e+03,1.382449e+03
2.853168e+03,1.399966e+03
2.864739e+03,1.362626e+03
2.876310e+03,1.356795e+03
2.887881e+03,1.361669e+03
2.899452e+03,1.358746e+03
2.911022e+03,1.323309e+03
2.922593e+03,1.315809e+03
2.934164e+03,1.302202e+03
2.945735e+03,1.283944e+03
2.957306e+03,1.319763e+03
2.968876e+03,1.247833e+03
2.980447e+03,1.240464e+03
2.992018e+03,1.260599e+03
3.003589e+03,1.232764e+03
3.015160e+03,1.213131e+03
3.026730e+03,1.176280e+03
3.038301e+03,1.188158e+03
3.049872e+03,1.186572e+03
3.061443e+03,1.179093e+03
3.073014e+03,1.175906e+03
3.084584e+03,1.168613e+03
3.096155e+03,1.156944e+03
3.107726e+03,1.134319e+03
3.119297e+03,1.182056e+03
3.130868e+03,1.159069e+03
3.142438e+03,1.186897e+03
3.154009e+03,1.151842e+03
3.165580e+03,1.201469e+03
3.177151e+03,1.158738e+03
3.188722e+03,1.197443e+03
3.200292e+03,1.223182e+03
3.211863e+03,0.000000e+00
3.223434e+03,0.000000e+00
3.235005e+03,0.000000e+00
3.246576e+03,0.000000e+00
3.258146e+03,0.000000e+00
3.269717e+03,0.000000e+00
3.281288e+03,0.000000e+00
3.292859e+03,0.000000e+00
3.304430e+03,0.000000e+00
3.316000e+03,0.000000e+00
3.327571e+03,0.000000e+00
3.339142e+03,0.000000e+00
3.350713e+03,0.000000e+00
3.362284e+03,0.000000e+00
3.373854e+03,0.000000e+00
3.385425e+03,0.000000e+00
3.396996e+03,0.000000e+00
3.408567e+03,0.000000e+00
3.420138e+03,0.000000e+00
3.431708e+03,0.000000e+00
3.443279e+03,0.000000e+00
3.454850e+03,0.000000e+00
3.466421e+03,0.000000e+00
3.477992e+03,0.000000e+00
3.489563e+03,0.000000e+00
3.500169e+03,0.000000e+00