File: RAMAN_data/23052023_r3/blue fibre37.CSV
9.931763e+01,0.000000e+00
1.108884e+02,0.000000e+00
1.224592e+02,0.000000e+00
1.340300e+02,0.000000e+00
1.456008e+02,0.000000e+00
1.571716e+02,0.000000e+00
1.687424e+02,0.000000e+00
1.803132e+02,0.000000e+00
1.918840e+02,0.000000e+00
2.034548e+02,4.100195e+03
2.150256e+02,4.129869e+03
2.265964e+02,4.180733e+03
2.381673e+02,4.236543e+03
2.497381e+02,4.295287e+03
2.613088e+02,4.307671e+03
2.728796e+02,4.373700e+03
2.844504e+02,4.418196e+03
2.960212e+02,4.407422e+03
3.075920e+02,4.421548e+03
3.191628e+02,4.446440e+03
3.307336e+02,4.481485e+03
3.423044e+02,4.499696e+03
3.538752e+02,4.522540e+03
3.654461e+02,4.529705e+03
3.770169e+02,4.577695e+03
3.885877e+02,4.590316e+03
4.001585e+02,4.586808e+03
4.117293e+02,4.600953e+03
4.233001e+02,4.598757e+03
4.348709e+02,4.604400e+03
4.464417e+02,4.638972e+03
4.580125e+02,4.616439e+03
4.695833e+02,4.600428e+03
4.811541e+02,4.629501e+03
4.927249e+02,4.605065e+03
5.042957e+02,4.606468e+03
5.158665e+02,4.603729e+03
5.274373e+02,4.604515e+03
5.390081e+02,4.620531e+03
5.505789e+02,4.633605e+03
5.621497e+02,4.634299e+03
5.737205e+02,4.581138e+03
5.852913e+02,4.539462e+03
5.968621e+02,4.574077e+03
6.084329e+02,4.587264e+03
6.200037e+02,4.509603e+03
6.315745e+02,4.509912e+03
6.431453e+02,4.485382e+03
6.547161e+02,4.472317e+03
6.662869e+02,4.453033e+03
6.778577e+02,4.442327e+03
6.894285e+02,4.401342e+03
7.009993e+02,4.395358e+03
7.125701e+02,4.348462e+03
7.241409e+02,4.326083e+03
7.357117e+02,4.288234e+03
7.472825e+02,4.275729e+03
7.588533e+02,4.224720e+03
7.704241e+02,4.198537e+03
7.819949e+02,4.200828e+03
7.935657e+02,4.165475e+03
8.051365e+02,4.127907e+03
8.167073e+02,4.080106e+03
8.282781e+02,4.066896e+03
8.398489e+02,4.059117e+03
8.514197e+02,4.008883e+03
8.629905e+02,4.001567e+03
8.745613e+02,3.949106e+03
8.861321e+02,3.949435e+03
8.977029e+02,3.917032e+03
9.092737e+02,3.864326e+03
9.208445e+02,3.842563e+03
9.324153e+02,3.814071e+03
9.439861e+02,3.771736e+03
9.555569e+02,3.720288e+03
9.671277e+02,3.699978e+03
9.786985e+02,3.680848e+03
9.902693e+02,3.633927e+03
1.001840e+03,3.582107e+03
1.013411e+03,3.563150e+03
1.024982e+03,3.538102e+03
1.036552e+03,3.506294e+03
1.048123e+03,3.467170e+03
1.059694e+03,3.469458e+03
1.071265e+03,3.454683e+03
1.082836e+03,3.442809e+03
1.094406e+03,3.379813e+03
1.105977e+03,3.359351e+03
1.117548e+03,3.349043e+03
1.129119e+03,3.301628e+03
1.140690e+03,3.273181e+03
1.152261e+03,3.245982e+03
1.163831e+03,3.215442e+03
1.175402e+03,3.188362e+03
1.186973e+03,3.158633e+03
1.198544e+03,3.138744e+03
1.210115e+03,3.114738e+03
1.221685e+03,3.079988e+03
1.233256e+03,3.056500e+03
1.244827e+03,3.043691e+03
1.256398e+03,3.005911e+03
1.267969e+03,2.968928e+03
1.279539e+03,2.945887e+03
1.291110e+03,2.930708e+03
1.302681e+03,2.907361e+03
1.314252e+03,2.869988e+03
1.325823e+03,2.865119e+03
1.337393e+03,2.856634e+03
1.348964e+03,2.831811e+03
1.360535e+03,2.807340e+03
1.372106e+03,2.797118e+03
1.383677e+03,2.769399e+03
1.395247e+03,2.748150e+03
1.406818e+03,2.721325e+03
1.418389e+03,2.697543e+03
1.429960e+03,2.690991e+03
1.441531e+03,2.662764e+03
1.453101e+03,2.660248e+03
1.464672e+03,2.632341e+03
1.476243e+03,2.612663e+03
1.487814e+03,2.578448e+03
1.499385e+03,2.553390e+03
1.510955e+03,2.546772e+03
1.522526e+03,2.521660e+03
1.534097e+03,2.489630e+03
1.545668e+03,2.481446e+03
1.557239e+03,2.477184e+03
1.568809e+03,2.498626e+03
1.580380e+03,2.473680e+03
1.591951e+03,2.404587e+03
1.603522e+03,2.397223e+03
1.615093e+03,2.384614e+03
1.626663e+03,2.367919e+03
1.638234e+03,2.334286e+03
1.649805e+03,2.309013e+03
1.661376e+03,2.301274e+03
1.672947e+03,2.274249e+03
1.684517e+03,2.235837e+03
1.696088e+03,2.233123e+03
1.707659e+03,2.206076e+03
1.719230e+03,2.164532e+03
1.730801e+03,2.151659e+03
1.742371e+03,2.147258e+03
1.753942e+03,2.108799e+03
1.765513e+03,2.090061e+03
1.777084e+03,2.066728e+03
1.788655e+03,2.032229e+03
1.800225e+03,2.044696e+03
1.811796e+03,2.013997e+03
1.823367e+03,1.985718e+03
1.834938e+03,1.995619e+03
1.846509e+03,1.981106e+03
1.858079e+03,1.945391e+03
1.869650e+03,1.922514e+03
1.881221e+03,1.894520e+03
1.892792e+03,1.887783e+03
1.904363e+03,1.860513e+03
1.915933e+03,1.844958e+03
1.927504e+03,1.826664e+03
1.939075e+03,1.808217e+03
1.950646e+03,1.776387e+03
1.962217e+03,1.758840e+03
1.973787e+03,1.736445e+03
1.985358e+03,1.720772e+03
1.996929e+03,1.696564e+03
2.008500e+03,1.700063e+03
2.020071e+03,1.663994e+03
2.031641e+03,1.638301e+03
2.043212e+03,1.642716e+03
2.054783e+03,1.596159e+03
2.066354e+03,1.572841e+03
2.077925e+03,1.558920e+03
2.089496e+03,1.557350e+03
2.101066e+03,1.548282e+03
2.112637e+03,1.506941e+03
2.124208e+03,1.514438e+03
2.135779e+03,1.474195e+03
2.147350e+03,1.450480e+03
2.158920e+03,1.422139e+03
2.170491e+03,1.418190e+03
2.182062e+03,1.416992e+03
2.193633e+03,1.367268e+03
2.205204e+03,1.360196e+03
2.216774e+03,1.362153e+03
2.228345e+03,1.335350e+03
2.239916e+03,1.308424e+03
2.251487e+03,1.293859e+03
2.263058e+03,1.278949e+03
2.274628e+03,1.265725e+03
2.286199e+03,1.239212e+03
2.297770e+03,1.228440e+03
2.309341e+03,1.198831e+03
2.320912e+03,1.194656e+03
2.332482e+03,1.178870e+03
2.344053e+03,1.177656e+03
2.355624e+03,1.145626e+03
2.367195e+03,1.127948e+03
2.378766e+03,1.128428e+03
2.390336e+03,1.103062e+03
2.401907e+03,1.083422e+03
2.413478e+03,1.078877e+03
2.425049e+03,1.059995e+03
2.436620e+03,1.055466e+03
2.448190e+03,1.040998e+03
2.459761e+03,1.009041e+03
2.471332e+03,1.015710e+03
2.482903e+03,9.837757e+02
2.494474e+03,9.959578e+02
2.506044e+03,9.768870e+02
2.517615e+03,9.524375e+02
2.529186e+03,9.439669e+02
2.540757e+03,9.429648e+02
2.552328e+03,9.228860e+02
2.563898e+03,9.306263e+02
2.575469e+03,9.026845e+02
2.587040e+03,8.970883e+02
2.598611e+03,8.775412e+02
2.610182e+03,8.841127e+02
2.621752e+03,8.803891e+02
2.633323e+03,8.501423e+02
2.644894e+03,8.461211e+02
2.656465e+03,8.379343e+02
2.668036e+03,8.181631e+02
2.679606e+03,8.398665e+02
2.691177e+03,7.988779e+02
2.702748e+03,8.022429e+02
2.714319e+03,7.879636e+02
2.725890e+03,8.010554e+02
2.737460e+03,7.674184e+02
2.749031e+03,7.561222e+02
2.760602e+03,7.655792e+02
2.772173e+03,7.467849e+02
2.783744e+03,7.413964e+02
2.795314e+03,7.362570e+02
2.806885e+03,7.341239e+02
2.818456e+03,7.310870e+02
2.830027e+03,7.313624e+02
2.841598e+03,7.013421e+02
2.853168e+03,7.107729e+02
2.864739e+03,7.192744e+02
2.876310e+03,7.066086e+02
2.887881e+03,7.023464e+02
2.899452e+03,7.083118e+02
2.911022e+03,6.907701e+02
2.922593e+03,6.708446e+02
2.934164e+03,6.541645e+02
2.945735e+03,6.728958e+02
2.957306e+03,7.197247e+02
2.968876e+03,6.414891e+02
2.980447e+03,6.605775e+02
2.992018e+03,6.377778e+02
3.003589e+03,6.211537e+02
3.015160e+03,6.090284e+02
3.026730e+03,6.099524e+02
3.038301e+03,6.143923e+02
3.049872e+03,6.113942e+02
3.061443e+03,6.312678e+02
3.073014e+03,6.053745e+02
3.084584e+03,6.141486e+02
3.096155e+03,6.018425e+02
3.107726e+03,5.934191e+02
3.119297e+03,6.333126e+02
3.130868e+03,6.408378e+02
3.142438e+03,6.285209e+02
3.154009e+03,6.110201e+02
3.165580e+03,6.142430e+02
3.177151e+03,6.116908e+02
3.188722e+03,6.270944e+02
3.200292e+03,6.676695e+02
3.211863e+03,0.000000e+00
3.223434e+03,0.000000e+00
3.235005e+03,0.000000e+00
3.246576e+03,0.000000e+00
3.258146e+03,0.000000e+00
3.269717e+03,0.000000e+00
3.281288e+03,0.000000e+00
3.292859e+03,0.000000e+00
3.304430e+03,0.000000e+00
3.316000e+03,0.000000e+00
3.327571e+03,0.000000e+00
3.339142e+03,0.000000e+00
3.350713e+03,0.000000e+00
3.362284e+03,0.000000e+00
3.373854e+03,0.000000e+00
3.385425e+03,0.000000e+00
3.396996e+03,0.000000e+00
3.408567e+03,0.000000e+00
3.420138e+03,0.000000e+00
3.431708e+03,0.000000e+00
3.443279e+03,0.000000e+00
3.454850e+03,0.000000e+00
3.466421e+03,0.000000e+00
3.477992e+03,0.000000e+00
3.489563e+03,0.000000e+00
3.500169e+03,0.000000e+00