File: RAMAN_data/23052023_r3/blue fibre2.CSV
9.931763e+01,0.000000e+00
1.108884e+02,0.000000e+00
1.224592e+02,0.000000e+00
1.340300e+02,0.000000e+00
1.456008e+02,0.000000e+00
1.571716e+02,0.000000e+00
1.687424e+02,0.000000e+00
1.803132e+02,0.000000e+00
1.918840e+02,0.000000e+00
2.034548e+02,6.836128e+03
2.150256e+02,6.892500e+03
2.265964e+02,6.989490e+03
2.381673e+02,7.085029e+03
2.497381e+02,7.216881e+03
2.613088e+02,7.273017e+03
2.728796e+02,7.434489e+03
2.844504e+02,7.524927e+03
2.960212e+02,7.494349e+03
3.075920e+02,7.532065e+03
3.191628e+02,7.564862e+03
3.307336e+02,7.657257e+03
3.423044e+02,7.675178e+03
3.538752e+02,7.750186e+03
3.654461e+02,7.765195e+03
3.770169e+02,7.851111e+03
3.885877e+02,7.896966e+03
4.001585e+02,7.936927e+03
4.117293e+02,7.947958e+03
4.233001e+02,8.006103e+03
4.348709e+02,7.993140e+03
4.464417e+02,8.038472e+03
4.580125e+02,8.041899e+03
4.695833e+02,8.082114e+03
4.811541e+02,8.086482e+03
4.927249e+02,8.122388e+03
5.042957e+02,8.107722e+03
5.158665e+02,8.163055e+03
5.274373e+02,8.166044e+03
5.390081e+02,8.237096e+03
5.505789e+02,8.294033e+03
5.621497e+02,8.306768e+03
5.737205e+02,8.154844e+03
5.852913e+02,8.189328e+03
5.968621e+02,8.244421e+03
6.084329e+02,8.345193e+03
6.200037e+02,8.161252e+03
6.315745e+02,8.159057e+03
6.431453e+02,8.118048e+03
6.547161e+02,8.081583e+03
6.662869e+02,8.065653e+03
6.778577e+02,8.038328e+03
6.894285e+02,7.985560e+03
7.009993e+02,7.930175e+03
7.125701e+02,7.934745e+03
7.241409e+02,7.893703e+03
7.357117e+02,7.837432e+03
7.472825e+02,7.840573e+03
7.588533e+02,7.818736e+03
7.704241e+02,7.757276e+03
7.819949e+02,7.778239e+03
7.935657e+02,7.731131e+03
8.051365e+02,7.649933e+03
8.167073e+02,7.595369e+03
8.282781e+02,7.531518e+03
8.398489e+02,7.552283e+03
8.514197e+02,7.486516e+03
8.629905e+02,7.442846e+03
8.745613e+02,7.383995e+03
8.861321e+02,7.368251e+03
8.977029e+02,7.296703e+03
9.092737e+02,7.199210e+03
9.208445e+02,7.168986e+03
9.324153e+02,7.127218e+03
9.439861e+02,7.072479e+03
9.555569e+02,7.004821e+03
9.671277e+02,6.967079e+03
9.786985e+02,6.914694e+03
9.902693e+02,6.839596e+03
1.001840e+03,6.789167e+03
1.013411e+03,6.757354e+03
1.024982e+03,6.713430e+03
1.036552e+03,6.636578e+03
1.048123e+03,6.591452e+03
1.059694e+03,6.591471e+03
1.071265e+03,6.568292e+03
1.082836e+03,6.557042e+03
1.094406e+03,6.438932e+03
1.105977e+03,6.389801e+03
1.117548e+03,6.342762e+03
1.129119e+03,6.283109e+03
1.140690e+03,6.238940e+03
1.152261e+03,6.198204e+03
1.163831e+03,6.138483e+03
1.175402e+03,6.079858e+03
1.186973e+03,6.036621e+03
1.198544e+03,6.030231e+03
1.210115e+03,5.936906e+03
1.221685e+03,5.924601e+03
1.233256e+03,5.852708e+03
1.244827e+03,5.805303e+03
1.256398e+03,5.761577e+03
1.267969e+03,5.687536e+03
1.279539e+03,5.649666e+03
1.291110e+03,5.612986e+03
1.302681e+03,5.565440e+03
1.314252e+03,5.545323e+03
1.325823e+03,5.509501e+03
1.337393e+03,5.481668e+03
1.348964e+03,5.426370e+03
1.360535e+03,5.399042e+03
1.372106e+03,5.343835e+03
1.383677e+03,5.281658e+03
1.395247e+03,5.246281e+03
1.406818e+03,5.207866e+03
1.418389e+03,5.182377e+03
1.429960e+03,5.148829e+03
1.441531e+03,5.112957e+03
1.453101e+03,5.101585e+03
1.464672e+03,5.059870e+03
1.476243e+03,5.022181e+03
1.487814e+03,4.978899e+03
1.499385e+03,4.934290e+03
1.510955e+03,4.923205e+03
1.522526e+03,4.859005e+03
1.534097e+03,4.812619e+03
1.545668e+03,4.782866e+03
1.557239e+03,4.775417e+03
1.568809e+03,4.927649e+03
1.580380e+03,4.816671e+03
1.591951e+03,4.653279e+03
1.603522e+03,4.644662e+03
1.615093e+03,4.573530e+03
1.626663e+03,4.582697e+03
1.638234e+03,4.516067e+03
1.649805e+03,4.445004e+03
1.661376e+03,4.435641e+03
1.672947e+03,4.420623e+03
1.684517e+03,4.370549e+03
1.696088e+03,4.318358e+03
1.707659e+03,4.251219e+03
1.719230e+03,4.249375e+03
1.730801e+03,4.213534e+03
1.742371e+03,4.174810e+03
1.753942e+03,4.119565e+03
1.765513e+03,4.083082e+03
1.777084e+03,4.058766e+03
1.788655e+03,4.016325e+03
1.800225e+03,4.012348e+03
1.811796e+03,3.968260e+03
1.823367e+03,3.903829e+03
1.834938e+03,3.875503e+03
1.846509e+03,3.850433e+03
1.858079e+03,3.815904e+03
1.869650e+03,3.798305e+03
1.881221e+03,3.759856e+03
1.892792e+03,3.724952e+03
1.904363e+03,3.670277e+03
1.915933e+03,3.605015e+03
1.927504e+03,3.609456e+03
1.939075e+03,3.567063e+03
1.950646e+03,3.534189e+03
1.962217e+03,3.488134e+03
1.973787e+03,3.473145e+03
1.985358e+03,3.432749e+03
1.996929e+03,3.399142e+03
2.008500e+03,3.361757e+03
2.020071e+03,3.331464e+03
2.031641e+03,3.265083e+03
2.043212e+03,3.225984e+03
2.054783e+03,3.221052e+03
2.066354e+03,3.161155e+03
2.077925e+03,3.156185e+03
2.089496e+03,3.103035e+03
2.101066e+03,3.071077e+03
2.112637e+03,3.035775e+03
2.124208e+03,3.006997e+03
2.135779e+03,2.979259e+03
2.147350e+03,2.910765e+03
2.158920e+03,2.883056e+03
2.170491e+03,2.871555e+03
2.182062e+03,2.824979e+03
2.193633e+03,2.790742e+03
2.205204e+03,2.780882e+03
2.216774e+03,2.747855e+03
2.228345e+03,2.681415e+03
2.239916e+03,2.668822e+03
2.251487e+03,2.627595e+03
2.263058e+03,2.583316e+03
2.274628e+03,2.565505e+03
2.286199e+03,2.528058e+03
2.297770e+03,2.500127e+03
2.309341e+03,2.472715e+03
2.320912e+03,2.439188e+03
2.332482e+03,2.386612e+03
2.344053e+03,2.384248e+03
2.355624e+03,2.343281e+03
2.367195e+03,2.312445e+03
2.378766e+03,2.295254e+03
2.390336e+03,2.262177e+03
2.401907e+03,2.231773e+03
2.413478e+03,2.214276e+03
2.425049e+03,2.189667e+03
2.436620e+03,2.162313e+03
2.448190e+03,2.131138e+03
2.459761e+03,2.110073e+03
2.471332e+03,2.073509e+03
2.482903e+03,2.045240e+03
2.494474e+03,2.040314e+03
2.506044e+03,2.004690e+03
2.517615e+03,2.010317e+03
2.529186e+03,1.940802e+03
2.540757e+03,1.938294e+03
2.552328e+03,1.937684e+03
2.563898e+03,1.915367e+03
2.575469e+03,1.892271e+03
2.587040e+03,1.849828e+03
2.598611e+03,1.829188e+03
2.610182e+03,1.809642e+03
2.621752e+03,1.781835e+03
2.633323e+03,1.771732e+03
2.644894e+03,1.731468e+03
2.656465e+03,1.737552e+03
2.668036e+03,1.729623e+03
2.679606e+03,1.682796e+03
2.691177e+03,1.681562e+03
2.702748e+03,1.656487e+03
2.714319e+03,1.649468e+03
2.725890e+03,1.618670e+03
2.737460e+03,1.608368e+03
2.749031e+03,1.588237e+03
2.760602e+03,1.585544e+03
2.772173e+03,1.553863e+03
2.783744e+03,1.530574e+03
2.795314e+03,1.525581e+03
2.806885e+03,1.519027e+03
2.818456e+03,1.506639e+03
2.830027e+03,1.508611e+03
2.841598e+03,1.470256e+03
2.853168e+03,1.482880e+03
2.864739e+03,1.447552e+03
2.876310e+03,1.462995e+03
2.887881e+03,1.431617e+03
2.899452e+03,1.432338e+03
2.911022e+03,1.427475e+03
2.922593e+03,1.385830e+03
2.934164e+03,1.402056e+03
2.945735e+03,1.392195e+03
2.957306e+03,1.374833e+03
2.968876e+03,1.345391e+03
2.980447e+03,1.349995e+03
2.992018e+03,1.340796e+03
3.003589e+03,1.294195e+03
3.015160e+03,1.298182e+03
3.026730e+03,1.251848e+03
3.038301e+03,1.268476e+03
3.049872e+03,1.298825e+03
3.061443e+03,1.265434e+03
3.073014e+03,1.274460e+03
3.084584e+03,1.262538e+03
3.096155e+03,1.231858e+03
3.107726e+03,1.228430e+03
3.119297e+03,1.243527e+03
3.130868e+03,1.267187e+03
3.142438e+03,1.213514e+03
3.154009e+03,1.211628e+03
3.165580e+03,1.232387e+03
3.177151e+03,1.218205e+03
3.188722e+03,1.191805e+03
3.200292e+03,1.299949e+03
3.211863e+03,0.000000e+00
3.223434e+03,0.000000e+00
3.235005e+03,0.000000e+00
3.246576e+03,0.000000e+00
3.258146e+03,0.000000e+00
3.269717e+03,0.000000e+00
3.281288e+03,0.000000e+00
3.292859e+03,0.000000e+00
3.304430e+03,0.000000e+00
3.316000e+03,0.000000e+00
3.327571e+03,0.000000e+00
3.339142e+03,0.000000e+00
3.350713e+03,0.000000e+00
3.362284e+03,0.000000e+00
3.373854e+03,0.000000e+00
3.385425e+03,0.000000e+00
3.396996e+03,0.000000e+00
3.408567e+03,0.000000e+00
3.420138e+03,0.000000e+00
3.431708e+03,0.000000e+00
3.443279e+03,0.000000e+00
3.454850e+03,0.000000e+00
3.466421e+03,0.000000e+00
3.477992e+03,0.000000e+00
3.489563e+03,0.000000e+00
3.500169e+03,0.000000e+00