File: RAMAN_data/23052023_r3/blue fibre13.CSV
9.931763e+01,0.000000e+00
1.108884e+02,0.000000e+00
1.224592e+02,0.000000e+00
1.340300e+02,0.000000e+00
1.456008e+02,0.000000e+00
1.571716e+02,0.000000e+00
1.687424e+02,0.000000e+00
1.803132e+02,0.000000e+00
1.918840e+02,0.000000e+00
2.034548e+02,4.613629e+03
2.150256e+02,4.664480e+03
2.265964e+02,4.721295e+03
2.381673e+02,4.798757e+03
2.497381e+02,4.879232e+03
2.613088e+02,4.935286e+03
2.728796e+02,5.041706e+03
2.844504e+02,5.088876e+03
2.960212e+02,5.106742e+03
3.075920e+02,5.124470e+03
3.191628e+02,5.167320e+03
3.307336e+02,5.216835e+03
3.423044e+02,5.241703e+03
3.538752e+02,5.286740e+03
3.654461e+02,5.331288e+03
3.770169e+02,5.365514e+03
3.885877e+02,5.386834e+03
4.001585e+02,5.397111e+03
4.117293e+02,5.432290e+03
4.233001e+02,5.452926e+03
4.348709e+02,5.485942e+03
4.464417e+02,5.492549e+03
4.580125e+02,5.514170e+03
4.695833e+02,5.517345e+03
4.811541e+02,5.539895e+03
4.927249e+02,5.531474e+03
5.042957e+02,5.548706e+03
5.158665e+02,5.601438e+03
5.274373e+02,5.578766e+03
5.390081e+02,5.614644e+03
5.505789e+02,5.634949e+03
5.621497e+02,5.654356e+03
5.737205e+02,5.579574e+03
5.852913e+02,5.580995e+03
5.968621e+02,5.600617e+03
6.084329e+02,5.634410e+03
6.200037e+02,5.559278e+03
6.315745e+02,5.528952e+03
6.431453e+02,5.526232e+03
6.547161e+02,5.475213e+03
6.662869e+02,5.465755e+03
6.778577e+02,5.438800e+03
6.894285e+02,5.406686e+03
7.009993e+02,5.401349e+03
7.125701e+02,5.371772e+03
7.241409e+02,5.332463e+03
7.357117e+02,5.313106e+03
7.472825e+02,5.305622e+03
7.588533e+02,5.256063e+03
7.704241e+02,5.225895e+03
7.819949e+02,5.232985e+03
7.935657e+02,5.198719e+03
8.051365e+02,5.135995e+03
8.167073e+02,5.098850e+03
8.282781e+02,5.054957e+03
8.398489e+02,5.066468e+03
8.514197e+02,5.018454e+03
8.629905e+02,4.959640e+03
8.745613e+02,4.946909e+03
8.861321e+02,4.927340e+03
8.977029e+02,4.896331e+03
9.092737e+02,4.811196e+03
9.208445e+02,4.787521e+03
9.324153e+02,4.728783e+03
9.439861e+02,4.709523e+03
9.555569e+02,4.651453e+03
9.671277e+02,4.636330e+03
9.786985e+02,4.604167e+03
9.902693e+02,4.540529e+03
1.001840e+03,4.488406e+03
1.013411e+03,4.462139e+03
1.024982e+03,4.424386e+03
1.036552e+03,4.403168e+03
1.048123e+03,4.334720e+03
1.059694e+03,4.326356e+03
1.071265e+03,4.331842e+03
1.082836e+03,4.275791e+03
1.094406e+03,4.217596e+03
1.105977e+03,4.183924e+03
1.117548e+03,4.152312e+03
1.129119e+03,4.089344e+03
1.140690e+03,4.055718e+03
1.152261e+03,4.024188e+03
1.163831e+03,3.976041e+03
1.175402e+03,3.931845e+03
1.186973e+03,3.886536e+03
1.198544e+03,3.875808e+03
1.210115e+03,3.830722e+03
1.221685e+03,3.799081e+03
1.233256e+03,3.767966e+03
1.244827e+03,3.747264e+03
1.256398e+03,3.692758e+03
1.267969e+03,3.645327e+03
1.279539e+03,3.614495e+03
1.291110e+03,3.617555e+03
1.302681e+03,3.557112e+03
1.314252e+03,3.528222e+03
1.325823e+03,3.514171e+03
1.337393e+03,3.501791e+03
1.348964e+03,3.445450e+03
1.360535e+03,3.411286e+03
1.372106e+03,3.397083e+03
1.383677e+03,3.363694e+03
1.395247e+03,3.334888e+03
1.406818e+03,3.303216e+03
1.418389e+03,3.280641e+03
1.429960e+03,3.239258e+03
1.441531e+03,3.207704e+03
1.453101e+03,3.210364e+03
1.464672e+03,3.181767e+03
1.476243e+03,3.142578e+03
1.487814e+03,3.115242e+03
1.499385e+03,3.084112e+03
1.510955e+03,3.057532e+03
1.522526e+03,3.047477e+03
1.534097e+03,3.018338e+03
1.545668e+03,2.992475e+03
1.557239e+03,2.975836e+03
1.568809e+03,3.037343e+03
1.580380e+03,2.978542e+03
1.591951e+03,2.901632e+03
1.603522e+03,2.877865e+03
1.615093e+03,2.855883e+03
1.626663e+03,2.852571e+03
1.638234e+03,2.802314e+03
1.649805e+03,2.771405e+03
1.661376e+03,2.756906e+03
1.672947e+03,2.734877e+03
1.684517e+03,2.698314e+03
1.696088e+03,2.671552e+03
1.707659e+03,2.662600e+03
1.719230e+03,2.628606e+03
1.730801e+03,2.605249e+03
1.742371e+03,2.575740e+03
1.753942e+03,2.565555e+03
1.765513e+03,2.534353e+03
1.777084e+03,2.509140e+03
1.788655e+03,2.475484e+03
1.800225e+03,2.468029e+03
1.811796e+03,2.418906e+03
1.823367e+03,2.419806e+03
1.834938e+03,2.399913e+03
1.846509e+03,2.383477e+03
1.858079e+03,2.354511e+03
1.869650e+03,2.318885e+03
1.881221e+03,2.297576e+03
1.892792e+03,2.286509e+03
1.904363e+03,2.261984e+03
1.915933e+03,2.230713e+03
1.927504e+03,2.215431e+03
1.939075e+03,2.175331e+03
1.950646e+03,2.152952e+03
1.962217e+03,2.138692e+03
1.973787e+03,2.118070e+03
1.985358e+03,2.103769e+03
1.996929e+03,2.061268e+03
2.008500e+03,2.052313e+03
2.020071e+03,2.004112e+03
2.031641e+03,1.992989e+03
2.043212e+03,1.980495e+03
2.054783e+03,1.947243e+03
2.066354e+03,1.917113e+03
2.077925e+03,1.890939e+03
2.089496e+03,1.889128e+03
2.101066e+03,1.865353e+03
2.112637e+03,1.826674e+03
2.124208e+03,1.816511e+03
2.135779e+03,1.792227e+03
2.147350e+03,1.764544e+03
2.158920e+03,1.745056e+03
2.170491e+03,1.725861e+03
2.182062e+03,1.705324e+03
2.193633e+03,1.671264e+03
2.205204e+03,1.667725e+03
2.216774e+03,1.649019e+03
2.228345e+03,1.622716e+03
2.239916e+03,1.587284e+03
2.251487e+03,1.577796e+03
2.263058e+03,1.558475e+03
2.274628e+03,1.533871e+03
2.286199e+03,1.498061e+03
2.297770e+03,1.506288e+03
2.309341e+03,1.481593e+03
2.320912e+03,1.470326e+03
2.332482e+03,1.443750e+03
2.344053e+03,1.432087e+03
2.355624e+03,1.396312e+03
2.367195e+03,1.375709e+03
2.378766e+03,1.353242e+03
2.390336e+03,1.355313e+03
2.401907e+03,1.319676e+03
2.413478e+03,1.307848e+03
2.425049e+03,1.299805e+03
2.436620e+03,1.284480e+03
2.448190e+03,1.260514e+03
2.459761e+03,1.240383e+03
2.471332e+03,1.240325e+03
2.482903e+03,1.213588e+03
2.494474e+03,1.199566e+03
2.506044e+03,1.196987e+03
2.517615e+03,1.162010e+03
2.529186e+03,1.162491e+03
2.540757e+03,1.148602e+03
2.552328e+03,1.141286e+03
2.563898e+03,1.131720e+03
2.575469e+03,1.112936e+03
2.587040e+03,1.076079e+03
2.598611e+03,1.072800e+03
2.610182e+03,1.058533e+03
2.621752e+03,1.036013e+03
2.633323e+03,1.051656e+03
2.644894e+03,1.020744e+03
2.656465e+03,1.033659e+03
2.668036e+03,1.031206e+03
2.679606e+03,9.897852e+02
2.691177e+03,9.706399e+02
2.702748e+03,9.885829e+02
2.714319e+03,9.600949e+02
2.725890e+03,9.464453e+02
2.737460e+03,9.433433e+02
2.749031e+03,9.298461e+02
2.760602e+03,9.312907e+02
2.772173e+03,9.260178e+02
2.783744e+03,9.137334e+02
2.795314e+03,8.731247e+02
2.806885e+03,8.996776e+02
2.818456e+03,9.032780e+02
2.830027e+03,8.658041e+02
2.841598e+03,8.674404e+02
2.853168e+03,8.665578e+02
2.864739e+03,8.690534e+02
2.876310e+03,8.775366e+02
2.887881e+03,8.605325e+02
2.899452e+03,8.788250e+02
2.911022e+03,8.429086e+02
2.922593e+03,8.539500e+02
2.934164e+03,8.101385e+02
2.945735e+03,8.211826e+02
2.957306e+03,8.493466e+02
2.968876e+03,7.697383e+02
2.980447e+03,8.016426e+02
2.992018e+03,7.686615e+02
3.003589e+03,7.531270e+02
3.015160e+03,7.662969e+02
3.026730e+03,7.458859e+02
3.038301e+03,7.598911e+02
3.049872e+03,7.142052e+02
3.061443e+03,7.900582e+02
3.073014e+03,7.420540e+02
3.084584e+03,7.583371e+02
3.096155e+03,7.216537e+02
3.107726e+03,7.025919e+02
3.119297e+03,7.313179e+02
3.130868e+03,7.493224e+02
3.142438e+03,7.681659e+02
3.154009e+03,7.142218e+02
3.165580e+03,7.171879e+02
3.177151e+03,7.313876e+02
3.188722e+03,7.248175e+02
3.200292e+03,7.623682e+02
3.211863e+03,0.000000e+00
3.223434e+03,0.000000e+00
3.235005e+03,0.000000e+00
3.246576e+03,0.000000e+00
3.258146e+03,0.000000e+00
3.269717e+03,0.000000e+00
3.281288e+03,0.000000e+00
3.292859e+03,0.000000e+00
3.304430e+03,0.000000e+00
3.316000e+03,0.000000e+00
3.327571e+03,0.000000e+00
3.339142e+03,0.000000e+00
3.350713e+03,0.000000e+00
3.362284e+03,0.000000e+00
3.373854e+03,0.000000e+00
3.385425e+03,0.000000e+00
3.396996e+03,0.000000e+00
3.408567e+03,0.000000e+00
3.420138e+03,0.000000e+00
3.431708e+03,0.000000e+00
3.443279e+03,0.000000e+00
3.454850e+03,0.000000e+00
3.466421e+03,0.000000e+00
3.477992e+03,0.000000e+00
3.489563e+03,0.000000e+00
3.500169e+03,0.000000e+00