File: RAMAN_data/23052023_r3/blue fibre18.CSV
9.931763e+01,0.000000e+00
1.108884e+02,0.000000e+00
1.224592e+02,0.000000e+00
1.340300e+02,0.000000e+00
1.456008e+02,0.000000e+00
1.571716e+02,0.000000e+00
1.687424e+02,0.000000e+00
1.803132e+02,0.000000e+00
1.918840e+02,0.000000e+00
2.034548e+02,9.755952e+03
2.150256e+02,9.801147e+03
2.265964e+02,9.853143e+03
2.381673e+02,9.986342e+03
2.497381e+02,1.012762e+04
2.613088e+02,1.016073e+04
2.728796e+02,1.028201e+04
2.844504e+02,1.033188e+04
2.960212e+02,1.030759e+04
3.075920e+02,1.028820e+04
3.191628e+02,1.033281e+04
3.307336e+02,1.038788e+04
3.423044e+02,1.039515e+04
3.538752e+02,1.043252e+04
3.654461e+02,1.043415e+04
3.770169e+02,1.048407e+04
3.885877e+02,1.055147e+04
4.001585e+02,1.054811e+04
4.117293e+02,1.053884e+04
4.233001e+02,1.054913e+04
4.348709e+02,1.060275e+04
4.464417e+02,1.062376e+04
4.580125e+02,1.062939e+04
4.695833e+02,1.063777e+04
4.811541e+02,1.060032e+04
4.927249e+02,1.060475e+04
5.042957e+02,1.066106e+04
5.158665e+02,1.065414e+04
5.274373e+02,1.070331e+04
5.390081e+02,1.082413e+04
5.505789e+02,1.085929e+04
5.621497e+02,1.084491e+04
5.737205e+02,1.066272e+04
5.852913e+02,1.064970e+04
5.968621e+02,1.070466e+04
6.084329e+02,1.079208e+04
6.200037e+02,1.061189e+04
6.315745e+02,1.058208e+04
6.431453e+02,1.055182e+04
6.547161e+02,1.052006e+04
6.662869e+02,1.050617e+04
6.778577e+02,1.048503e+04
6.894285e+02,1.042231e+04
7.009993e+02,1.037600e+04
7.125701e+02,1.034735e+04
7.241409e+02,1.028601e+04
7.357117e+02,1.026983e+04
7.472825e+02,1.027134e+04
7.588533e+02,1.024500e+04
7.704241e+02,1.016778e+04
7.819949e+02,1.019030e+04
7.935657e+02,1.012518e+04
8.051365e+02,1.006446e+04
8.167073e+02,9.988760e+03
8.282781e+02,9.978027e+03
8.398489e+02,9.964061e+03
8.514197e+02,9.868210e+03
8.629905e+02,9.803291e+03
8.745613e+02,9.746925e+03
8.861321e+02,9.751431e+03
8.977029e+02,9.672428e+03
9.092737e+02,9.590137e+03
9.208445e+02,9.550136e+03
9.324153e+02,9.502105e+03
9.439861e+02,9.467020e+03
9.555569e+02,9.376311e+03
9.671277e+02,9.340141e+03
9.786985e+02,9.303265e+03
9.902693e+02,9.226309e+03
1.001840e+03,9.138016e+03
1.013411e+03,9.116629e+03
1.024982e+03,9.083717e+03
1.036552e+03,9.007093e+03
1.048123e+03,8.957122e+03
1.059694e+03,8.940020e+03
1.071265e+03,8.945050e+03
1.082836e+03,8.917678e+03
1.094406e+03,8.774365e+03
1.105977e+03,8.717351e+03
1.117548e+03,8.684118e+03
1.129119e+03,8.599382e+03
1.140690e+03,8.575483e+03
1.152261e+03,8.528656e+03
1.163831e+03,8.446171e+03
1.175402e+03,8.417164e+03
1.186973e+03,8.364345e+03
1.198544e+03,8.345987e+03
1.210115e+03,8.291355e+03
1.221685e+03,8.269481e+03
1.233256e+03,8.162533e+03
1.244827e+03,8.115587e+03
1.256398e+03,8.044069e+03
1.267969e+03,7.957828e+03
1.279539e+03,7.912655e+03
1.291110e+03,7.853175e+03
1.302681e+03,7.837996e+03
1.314252e+03,7.811096e+03
1.325823e+03,7.731407e+03
1.337393e+03,7.737080e+03
1.348964e+03,7.658019e+03
1.360535e+03,7.618239e+03
1.372106e+03,7.515477e+03
1.383677e+03,7.445003e+03
1.395247e+03,7.383736e+03
1.406818e+03,7.363443e+03
1.418389e+03,7.316959e+03
1.429960e+03,7.262896e+03
1.441531e+03,7.223959e+03
1.453101e+03,7.232369e+03
1.464672e+03,7.120977e+03
1.476243e+03,7.081683e+03
1.487814e+03,7.019359e+03
1.499385e+03,6.973155e+03
1.510955e+03,6.977686e+03
1.522526e+03,6.961966e+03
1.534097e+03,6.867349e+03
1.545668e+03,6.791690e+03
1.557239e+03,6.839666e+03
1.568809e+03,7.097833e+03
1.580380e+03,6.919060e+03
1.591951e+03,6.651438e+03
1.603522e+03,6.613516e+03
1.615093e+03,6.551690e+03
1.626663e+03,6.549159e+03
1.638234e+03,6.407063e+03
1.649805e+03,6.352861e+03
1.661376e+03,6.285614e+03
1.672947e+03,6.287750e+03
1.684517e+03,6.200828e+03
1.696088e+03,6.161667e+03
1.707659e+03,6.094998e+03
1.719230e+03,6.071811e+03
1.730801e+03,6.002163e+03
1.742371e+03,5.940128e+03
1.753942e+03,5.911106e+03
1.765513e+03,5.891178e+03
1.777084e+03,5.810607e+03
1.788655e+03,5.780122e+03
1.800225e+03,5.745845e+03
1.811796e+03,5.702604e+03
1.823367e+03,5.619509e+03
1.834938e+03,5.579037e+03
1.846509e+03,5.554009e+03
1.858079e+03,5.491974e+03
1.869650e+03,5.459777e+03
1.881221e+03,5.381667e+03
1.892792e+03,5.369232e+03
1.904363e+03,5.334077e+03
1.915933e+03,5.224166e+03
1.927504e+03,5.218021e+03
1.939075e+03,5.149148e+03
1.950646e+03,5.114656e+03
1.962217e+03,5.075439e+03
1.973787e+03,5.015908e+03
1.985358e+03,4.977133e+03
1.996929e+03,4.901634e+03
2.008500e+03,4.868655e+03
2.020071e+03,4.819351e+03
2.031641e+03,4.805392e+03
2.043212e+03,4.718040e+03
2.054783e+03,4.650779e+03
2.066354e+03,4.643294e+03
2.077925e+03,4.583093e+03
2.089496e+03,4.592406e+03
2.101066e+03,4.502958e+03
2.112637e+03,4.473530e+03
2.124208e+03,4.437970e+03
2.135779e+03,4.403485e+03
2.147350e+03,4.269625e+03
2.158920e+03,4.257072e+03
2.170491e+03,4.228187e+03
2.182062e+03,4.182699e+03
2.193633e+03,4.141839e+03
2.205204e+03,4.127549e+03
2.216774e+03,4.070476e+03
2.228345e+03,3.999147e+03
2.239916e+03,3.932837e+03
2.251487e+03,3.926693e+03
2.263058e+03,3.865828e+03
2.274628e+03,3.812101e+03
2.286199e+03,3.769609e+03
2.297770e+03,3.755334e+03
2.309341e+03,3.676652e+03
2.320912e+03,3.645014e+03
2.332482e+03,3.630447e+03
2.344053e+03,3.607101e+03
2.355624e+03,3.570998e+03
2.367195e+03,3.505680e+03
2.378766e+03,3.433136e+03
2.390336e+03,3.418442e+03
2.401907e+03,3.369849e+03
2.413478e+03,3.330629e+03
2.425049e+03,3.313379e+03
2.436620e+03,3.250777e+03
2.448190e+03,3.181969e+03
2.459761e+03,3.182894e+03
2.471332e+03,3.180009e+03
2.482903e+03,3.108992e+03
2.494474e+03,3.092349e+03
2.506044e+03,3.048645e+03
2.517615e+03,3.015654e+03
2.529186e+03,2.974055e+03
2.540757e+03,2.952608e+03
2.552328e+03,2.938074e+03
2.563898e+03,2.885757e+03
2.575469e+03,2.864753e+03
2.587040e+03,2.847417e+03
2.598611e+03,2.815792e+03
2.610182e+03,2.784774e+03
2.621752e+03,2.773775e+03
2.633323e+03,2.740935e+03
2.644894e+03,2.712635e+03
2.656465e+03,2.676402e+03
2.668036e+03,2.653120e+03
2.679606e+03,2.616508e+03
2.691177e+03,2.609161e+03
2.702748e+03,2.551508e+03
2.714319e+03,2.534208e+03
2.725890e+03,2.542063e+03
2.737460e+03,2.508927e+03
2.749031e+03,2.450098e+03
2.760602e+03,2.443663e+03
2.772173e+03,2.425945e+03
2.783744e+03,2.398146e+03
2.795314e+03,2.422343e+03
2.806885e+03,2.373534e+03
2.818456e+03,2.374443e+03
2.830027e+03,2.327624e+03
2.841598e+03,2.315935e+03
2.853168e+03,2.281418e+03
2.864739e+03,2.272502e+03
2.876310e+03,2.265792e+03
2.887881e+03,2.196802e+03
2.899452e+03,2.188465e+03
2.911022e+03,2.154287e+03
2.922593e+03,2.163938e+03
2.934164e+03,2.152826e+03
2.945735e+03,2.169181e+03
2.957306e+03,2.170058e+03
2.968876e+03,2.129341e+03
2.980447e+03,2.081852e+03
2.992018e+03,2.104210e+03
3.003589e+03,2.028719e+03
3.015160e+03,2.049494e+03
3.026730e+03,2.061799e+03
3.038301e+03,1.988892e+03
3.049872e+03,2.045686e+03
3.061443e+03,1.993333e+03
3.073014e+03,1.988265e+03
3.084584e+03,1.960939e+03
3.096155e+03,1.957758e+03
3.107726e+03,1.977530e+03
3.119297e+03,1.986184e+03
3.130868e+03,1.970842e+03
3.142438e+03,1.968354e+03
3.154009e+03,1.951579e+03
3.165580e+03,1.987742e+03
3.177151e+03,1.943897e+03
3.188722e+03,1.970565e+03
3.200292e+03,2.042804e+03
3.211863e+03,0.000000e+00
3.223434e+03,0.000000e+00
3.235005e+03,0.000000e+00
3.246576e+03,0.000000e+00
3.258146e+03,0.000000e+00
3.269717e+03,0.000000e+00
3.281288e+03,0.000000e+00
3.292859e+03,0.000000e+00
3.304430e+03,0.000000e+00
3.316000e+03,0.000000e+00
3.327571e+03,0.000000e+00
3.339142e+03,0.000000e+00
3.350713e+03,0.000000e+00
3.362284e+03,0.000000e+00
3.373854e+03,0.000000e+00
3.385425e+03,0.000000e+00
3.396996e+03,0.000000e+00
3.408567e+03,0.000000e+00
3.420138e+03,0.000000e+00
3.431708e+03,0.000000e+00
3.443279e+03,0.000000e+00
3.454850e+03,0.000000e+00
3.466421e+03,0.000000e+00
3.477992e+03,0.000000e+00
3.489563e+03,0.000000e+00
3.500169e+03,0.000000e+00