File: RAMAN_data/23052023_r3/blue fibre14.CSV
9.931763e+01,0.000000e+00
1.108884e+02,0.000000e+00
1.224592e+02,0.000000e+00
1.340300e+02,0.000000e+00
1.456008e+02,0.000000e+00
1.571716e+02,0.000000e+00
1.687424e+02,0.000000e+00
1.803132e+02,0.000000e+00
1.918840e+02,0.000000e+00
2.034548e+02,4.236233e+03
2.150256e+02,4.312808e+03
2.265964e+02,4.342959e+03
2.381673e+02,4.441679e+03
2.497381e+02,4.535099e+03
2.613088e+02,4.562648e+03
2.728796e+02,4.652521e+03
2.844504e+02,4.709574e+03
2.960212e+02,4.681733e+03
3.075920e+02,4.714511e+03
3.191628e+02,4.763840e+03
3.307336e+02,4.789835e+03
3.423044e+02,4.828718e+03
3.538752e+02,4.828603e+03
3.654461e+02,4.894213e+03
3.770169e+02,4.933367e+03
3.885877e+02,4.967374e+03
4.001585e+02,4.967707e+03
4.117293e+02,4.996134e+03
4.233001e+02,5.029711e+03
4.348709e+02,5.062101e+03
4.464417e+02,5.084011e+03
4.580125e+02,5.085451e+03
4.695833e+02,5.111416e+03
4.811541e+02,5.112022e+03
4.927249e+02,5.145041e+03
5.042957e+02,5.157146e+03
5.158665e+02,5.189041e+03
5.274373e+02,5.195364e+03
5.390081e+02,5.257397e+03
5.505789e+02,5.298041e+03
5.621497e+02,5.314426e+03
5.737205e+02,5.210467e+03
5.852913e+02,5.180955e+03
5.968621e+02,5.254898e+03
6.084329e+02,5.321685e+03
6.200037e+02,5.212932e+03
6.315745e+02,5.205120e+03
6.431453e+02,5.192947e+03
6.547161e+02,5.197195e+03
6.662869e+02,5.185817e+03
6.778577e+02,5.179779e+03
6.894285e+02,5.145513e+03
7.009993e+02,5.096127e+03
7.125701e+02,5.100375e+03
7.241409e+02,5.050444e+03
7.357117e+02,5.046346e+03
7.472825e+02,5.038843e+03
7.588533e+02,5.024450e+03
7.704241e+02,4.983797e+03
7.819949e+02,5.002313e+03
7.935657e+02,4.978398e+03
8.051365e+02,4.902161e+03
8.167073e+02,4.873432e+03
8.282781e+02,4.877975e+03
8.398489e+02,4.859959e+03
8.514197e+02,4.801561e+03
8.629905e+02,4.781179e+03
8.745613e+02,4.770917e+03
8.861321e+02,4.764302e+03
8.977029e+02,4.709771e+03
9.092737e+02,4.655700e+03
9.208445e+02,4.621129e+03
9.324153e+02,4.589717e+03
9.439861e+02,4.558494e+03
9.555569e+02,4.519724e+03
9.671277e+02,4.468108e+03
9.786985e+02,4.452616e+03
9.902693e+02,4.392167e+03
1.001840e+03,4.348609e+03
1.013411e+03,4.345972e+03
1.024982e+03,4.293164e+03
1.036552e+03,4.255329e+03
1.048123e+03,4.238928e+03
1.059694e+03,4.204741e+03
1.071265e+03,4.232375e+03
1.082836e+03,4.215787e+03
1.094406e+03,4.141702e+03
1.105977e+03,4.109073e+03
1.117548e+03,4.074275e+03
1.129119e+03,4.018565e+03
1.140690e+03,4.006289e+03
1.152261e+03,3.963434e+03
1.163831e+03,3.924952e+03
1.175402e+03,3.894574e+03
1.186973e+03,3.871263e+03
1.198544e+03,3.859888e+03
1.210115e+03,3.797863e+03
1.221685e+03,3.779364e+03
1.233256e+03,3.750770e+03
1.244827e+03,3.718529e+03
1.256398e+03,3.667363e+03
1.267969e+03,3.633186e+03
1.279539e+03,3.614613e+03
1.291110e+03,3.589923e+03
1.302681e+03,3.544556e+03
1.314252e+03,3.541290e+03
1.325823e+03,3.516707e+03
1.337393e+03,3.506139e+03
1.348964e+03,3.453815e+03
1.360535e+03,3.429983e+03
1.372106e+03,3.397743e+03
1.383677e+03,3.378698e+03
1.395247e+03,3.339774e+03
1.406818e+03,3.312252e+03
1.418389e+03,3.290158e+03
1.429960e+03,3.260130e+03
1.441531e+03,3.253714e+03
1.453101e+03,3.263649e+03
1.464672e+03,3.210951e+03
1.476243e+03,3.192091e+03
1.487814e+03,3.174470e+03
1.499385e+03,3.148230e+03
1.510955e+03,3.150189e+03
1.522526e+03,3.106533e+03
1.534097e+03,3.068602e+03
1.545668e+03,3.057481e+03
1.557239e+03,3.062342e+03
1.568809e+03,3.185942e+03
1.580380e+03,3.108011e+03
1.591951e+03,2.995613e+03
1.603522e+03,2.974698e+03
1.615093e+03,2.936811e+03
1.626663e+03,2.951140e+03
1.638234e+03,2.884853e+03
1.649805e+03,2.841178e+03
1.661376e+03,2.830938e+03
1.672947e+03,2.824387e+03
1.684517e+03,2.802385e+03
1.696088e+03,2.764199e+03
1.707659e+03,2.757075e+03
1.719230e+03,2.737184e+03
1.730801e+03,2.691392e+03
1.742371e+03,2.669653e+03
1.753942e+03,2.661958e+03
1.765513e+03,2.639921e+03
1.777084e+03,2.606515e+03
1.788655e+03,2.585378e+03
1.800225e+03,2.584517e+03
1.811796e+03,2.543519e+03
1.823367e+03,2.518862e+03
1.834938e+03,2.515346e+03
1.846509e+03,2.477053e+03
1.858079e+03,2.471561e+03
1.869650e+03,2.425205e+03
1.881221e+03,2.402902e+03
1.892792e+03,2.394531e+03
1.904363e+03,2.359992e+03
1.915933e+03,2.331989e+03
1.927504e+03,2.304734e+03
1.939075e+03,2.275764e+03
1.950646e+03,2.261842e+03
1.962217e+03,2.243367e+03
1.973787e+03,2.243121e+03
1.985358e+03,2.205589e+03
1.996929e+03,2.192914e+03
2.008500e+03,2.157007e+03
2.020071e+03,2.136106e+03
2.031641e+03,2.114430e+03
2.043212e+03,2.088787e+03
2.054783e+03,2.065862e+03
2.066354e+03,2.048181e+03
2.077925e+03,2.027981e+03
2.089496e+03,1.992921e+03
2.101066e+03,1.974233e+03
2.112637e+03,1.954781e+03
2.124208e+03,1.959782e+03
2.135779e+03,1.895290e+03
2.147350e+03,1.900913e+03
2.158920e+03,1.878765e+03
2.170491e+03,1.852475e+03
2.182062e+03,1.804050e+03
2.193633e+03,1.781927e+03
2.205204e+03,1.780549e+03
2.216774e+03,1.771216e+03
2.228345e+03,1.714379e+03
2.239916e+03,1.692882e+03
2.251487e+03,1.690513e+03
2.263058e+03,1.661020e+03
2.274628e+03,1.642209e+03
2.286199e+03,1.619216e+03
2.297770e+03,1.616300e+03
2.309341e+03,1.570999e+03
2.320912e+03,1.551553e+03
2.332482e+03,1.539807e+03
2.344053e+03,1.518709e+03
2.355624e+03,1.526254e+03
2.367195e+03,1.486433e+03
2.378766e+03,1.477709e+03
2.390336e+03,1.460798e+03
2.401907e+03,1.433530e+03
2.413478e+03,1.435204e+03
2.425049e+03,1.408500e+03
2.436620e+03,1.394748e+03
2.448190e+03,1.360938e+03
2.459761e+03,1.351203e+03
2.471332e+03,1.326311e+03
2.482903e+03,1.312611e+03
2.494474e+03,1.309811e+03
2.506044e+03,1.278435e+03
2.517615e+03,1.271052e+03
2.529186e+03,1.244207e+03
2.540757e+03,1.220403e+03
2.552328e+03,1.235068e+03
2.563898e+03,1.208331e+03
2.575469e+03,1.197300e+03
2.587040e+03,1.167246e+03
2.598611e+03,1.180082e+03
2.610182e+03,1.145612e+03
2.621752e+03,1.138849e+03
2.633323e+03,1.111360e+03
2.644894e+03,1.117368e+03
2.656465e+03,1.100372e+03
2.668036e+03,1.077930e+03
2.679606e+03,1.077530e+03
2.691177e+03,1.077723e+03
2.702748e+03,1.084117e+03
2.714319e+03,1.063791e+03
2.725890e+03,1.039994e+03
2.737460e+03,1.009427e+03
2.749031e+03,1.029192e+03
2.760602e+03,1.033022e+03
2.772173e+03,1.009568e+03
2.783744e+03,9.722632e+02
2.795314e+03,9.781757e+02
2.806885e+03,9.778553e+02
2.818456e+03,9.839609e+02
2.830027e+03,9.516693e+02
2.841598e+03,9.592272e+02
2.853168e+03,9.470670e+02
2.864739e+03,9.487386e+02
2.876310e+03,9.420147e+02
2.887881e+03,9.286374e+02
2.899452e+03,9.502473e+02
2.911022e+03,9.066161e+02
2.922593e+03,9.133929e+02
2.934164e+03,8.789107e+02
2.945735e+03,8.841743e+02
2.957306e+03,9.503842e+02
2.968876e+03,8.694355e+02
2.980447e+03,8.657297e+02
2.992018e+03,8.523438e+02
3.003589e+03,8.217688e+02
3.015160e+03,8.488492e+02
3.026730e+03,8.452108e+02
3.038301e+03,8.482808e+02
3.049872e+03,8.099144e+02
3.061443e+03,8.118504e+02
3.073014e+03,8.081251e+02
3.084584e+03,8.100193e+02
3.096155e+03,7.781473e+02
3.107726e+03,7.784263e+02
3.119297e+03,8.181898e+02
3.130868e+03,8.094044e+02
3.142438e+03,8.291569e+02
3.154009e+03,7.935923e+02
3.165580e+03,8.008086e+02
3.177151e+03,8.067381e+02
3.188722e+03,8.113319e+02
3.200292e+03,8.007188e+02
3.211863e+03,0.000000e+00
3.223434e+03,0.000000e+00
3.235005e+03,0.000000e+00
3.246576e+03,0.000000e+00
3.258146e+03,0.000000e+00
3.269717e+03,0.000000e+00
3.281288e+03,0.000000e+00
3.292859e+03,0.000000e+00
3.304430e+03,0.000000e+00
3.316000e+03,0.000000e+00
3.327571e+03,0.000000e+00
3.339142e+03,0.000000e+00
3.350713e+03,0.000000e+00
3.362284e+03,0.000000e+00
3.373854e+03,0.000000e+00
3.385425e+03,0.000000e+00
3.396996e+03,0.000000e+00
3.408567e+03,0.000000e+00
3.420138e+03,0.000000e+00
3.431708e+03,0.000000e+00
3.443279e+03,0.000000e+00
3.454850e+03,0.000000e+00
3.466421e+03,0.000000e+00
3.477992e+03,0.000000e+00
3.489563e+03,0.000000e+00
3.500169e+03,0.000000e+00