File: RAMAN_data/23052023_r3/blue fibre6.CSV
9.931763e+01,0.000000e+00
1.108884e+02,0.000000e+00
1.224592e+02,0.000000e+00
1.340300e+02,0.000000e+00
1.456008e+02,0.000000e+00
1.571716e+02,0.000000e+00
1.687424e+02,0.000000e+00
1.803132e+02,0.000000e+00
1.918840e+02,0.000000e+00
2.034548e+02,1.052034e+04
2.150256e+02,1.057994e+04
2.265964e+02,1.068749e+04
2.381673e+02,1.083688e+04
2.497381e+02,1.092293e+04
2.613088e+02,1.102010e+04
2.728796e+02,1.114520e+04
2.844504e+02,1.128402e+04
2.960212e+02,1.139113e+04
3.075920e+02,1.148884e+04
3.191628e+02,1.160888e+04
3.307336e+02,1.175929e+04
3.423044e+02,1.189110e+04
3.538752e+02,1.203903e+04
3.654461e+02,1.215143e+04
3.770169e+02,1.231209e+04
3.885877e+02,1.246715e+04
4.001585e+02,1.259571e+04
4.117293e+02,1.274472e+04
4.233001e+02,1.288676e+04
4.348709e+02,1.304558e+04
4.464417e+02,1.321787e+04
4.580125e+02,1.333318e+04
4.695833e+02,1.347626e+04
4.811541e+02,1.360236e+04
4.927249e+02,1.374528e+04
5.042957e+02,1.387435e+04
5.158665e+02,1.399864e+04
5.274373e+02,1.410163e+04
5.390081e+02,1.417050e+04
5.505789e+02,1.428684e+04
5.621497e+02,1.439771e+04
5.737205e+02,1.446703e+04
5.852913e+02,1.457644e+04
5.968621e+02,1.471511e+04
6.084329e+02,1.480400e+04
6.200037e+02,1.484453e+04
6.315745e+02,1.490820e+04
6.431453e+02,1.500872e+04
6.547161e+02,1.510748e+04
6.662869e+02,1.514652e+04
6.778577e+02,1.514802e+04
6.894285e+02,1.519513e+04
7.009993e+02,1.527333e+04
7.125701e+02,1.527668e+04
7.241409e+02,1.522800e+04
7.357117e+02,1.519025e+04
7.472825e+02,1.522025e+04
7.588533e+02,1.512102e+04
7.704241e+02,1.505768e+04
7.819949e+02,1.504094e+04
7.935657e+02,1.495876e+04
8.051365e+02,1.480950e+04
8.167073e+02,1.471225e+04
8.282781e+02,1.464240e+04
8.398489e+02,1.457217e+04
8.514197e+02,1.445116e+04
8.629905e+02,1.436980e+04
8.745613e+02,1.422168e+04
8.861321e+02,1.419404e+04
8.977029e+02,1.403858e+04
9.092737e+02,1.388613e+04
9.208445e+02,1.374090e+04
9.324153e+02,1.366337e+04
9.439861e+02,1.353452e+04
9.555569e+02,1.337127e+04
9.671277e+02,1.328629e+04
9.786985e+02,1.318627e+04
9.902693e+02,1.301434e+04
1.001840e+03,1.288709e+04
1.013411e+03,1.281889e+04
1.024982e+03,1.270409e+04
1.036552e+03,1.259189e+04
1.048123e+03,1.247399e+04
1.059694e+03,1.234168e+04
1.071265e+03,1.233661e+04
1.082836e+03,1.221836e+04
1.094406e+03,1.203747e+04
1.105977e+03,1.190348e+04
1.117548e+03,1.182469e+04
1.129119e+03,1.165289e+04
1.140690e+03,1.159402e+04
1.152261e+03,1.145964e+04
1.163831e+03,1.134034e+04
1.175402e+03,1.119999e+04
1.186973e+03,1.110256e+04
1.198544e+03,1.102958e+04
1.210115e+03,1.090827e+04
1.221685e+03,1.086205e+04
1.233256e+03,1.070406e+04
1.244827e+03,1.060169e+04
1.256398e+03,1.047374e+04
1.267969e+03,1.037009e+04
1.279539e+03,1.027161e+04
1.291110e+03,1.017392e+04
1.302681e+03,1.008905e+04
1.314252e+03,9.987353e+03
1.325823e+03,9.866502e+03
1.337393e+03,9.833907e+03
1.348964e+03,9.749748e+03
1.360535e+03,9.653672e+03
1.372106e+03,9.534357e+03
1.383677e+03,9.413094e+03
1.395247e+03,9.325108e+03
1.406818e+03,9.234382e+03
1.418389e+03,9.194335e+03
1.429960e+03,9.088754e+03
1.441531e+03,8.989025e+03
1.453101e+03,9.008176e+03
1.464672e+03,8.854991e+03
1.476243e+03,8.817112e+03
1.487814e+03,8.692585e+03
1.499385e+03,8.641139e+03
1.510955e+03,8.585337e+03
1.522526e+03,8.488481e+03
1.534097e+03,8.401866e+03
1.545668e+03,8.320535e+03
1.557239e+03,8.336927e+03
1.568809e+03,8.665220e+03
1.580380e+03,8.374320e+03
1.591951e+03,8.100074e+03
1.603522e+03,7.996373e+03
1.615093e+03,7.953083e+03
1.626663e+03,7.891842e+03
1.638234e+03,7.790553e+03
1.649805e+03,7.678067e+03
1.661376e+03,7.636245e+03
1.672947e+03,7.549753e+03
1.684517e+03,7.466700e+03
1.696088e+03,7.409930e+03
1.707659e+03,7.354433e+03
1.719230e+03,7.236411e+03
1.730801e+03,7.215634e+03
1.742371e+03,7.124462e+03
1.753942e+03,7.036732e+03
1.765513e+03,7.006400e+03
1.777084e+03,6.916943e+03
1.788655e+03,6.862226e+03
1.800225e+03,6.780509e+03
1.811796e+03,6.715700e+03
1.823367e+03,6.643783e+03
1.834938e+03,6.605312e+03
1.846509e+03,6.535611e+03
1.858079e+03,6.437102e+03
1.869650e+03,6.375603e+03
1.881221e+03,6.342944e+03
1.892792e+03,6.278098e+03
1.904363e+03,6.198596e+03
1.915933e+03,6.141694e+03
1.927504e+03,6.054055e+03
1.939075e+03,6.004224e+03
1.950646e+03,5.949484e+03
1.962217e+03,5.922614e+03
1.973787e+03,5.800103e+03
1.985358e+03,5.752228e+03
1.996929e+03,5.686745e+03
2.008500e+03,5.634589e+03
2.020071e+03,5.545175e+03
2.031641e+03,5.472540e+03
2.043212e+03,5.404231e+03
2.054783e+03,5.358445e+03
2.066354e+03,5.300098e+03
2.077925e+03,5.250502e+03
2.089496e+03,5.215848e+03
2.101066e+03,5.101624e+03
2.112637e+03,5.054068e+03
2.124208e+03,5.012260e+03
2.135779e+03,4.923034e+03
2.147350e+03,4.881547e+03
2.158920e+03,4.801024e+03
2.170491e+03,4.749934e+03
2.182062e+03,4.687154e+03
2.193633e+03,4.603091e+03
2.205204e+03,4.574562e+03
2.216774e+03,4.512780e+03
2.228345e+03,4.422106e+03
2.239916e+03,4.374798e+03
2.251487e+03,4.339718e+03
2.263058e+03,4.243404e+03
2.274628e+03,4.175745e+03
2.286199e+03,4.095390e+03
2.297770e+03,4.128477e+03
2.309341e+03,4.026681e+03
2.320912e+03,3.963669e+03
2.332482e+03,3.888429e+03
2.344053e+03,3.893570e+03
2.355624e+03,3.825410e+03
2.367195e+03,3.766701e+03
2.378766e+03,3.716952e+03
2.390336e+03,3.646192e+03
2.401907e+03,3.618179e+03
2.413478e+03,3.564725e+03
2.425049e+03,3.537077e+03
2.436620e+03,3.461091e+03
2.448190e+03,3.431857e+03
2.459761e+03,3.363992e+03
2.471332e+03,3.329869e+03
2.482903e+03,3.293569e+03
2.494474e+03,3.229499e+03
2.506044e+03,3.201130e+03
2.517615e+03,3.173993e+03
2.529186e+03,3.122941e+03
2.540757e+03,3.087570e+03
2.552328e+03,3.043611e+03
2.563898e+03,2.996866e+03
2.575469e+03,2.982660e+03
2.587040e+03,2.925792e+03
2.598611e+03,2.894203e+03
2.610182e+03,2.851519e+03
2.621752e+03,2.835723e+03
2.633323e+03,2.803400e+03
2.644894e+03,2.731077e+03
2.656465e+03,2.746327e+03
2.668036e+03,2.734740e+03
2.679606e+03,2.655581e+03
2.691177e+03,2.636120e+03
2.702748e+03,2.629031e+03
2.714319e+03,2.577890e+03
2.725890e+03,2.528152e+03
2.737460e+03,2.539228e+03
2.749031e+03,2.488476e+03
2.760602e+03,2.459143e+03
2.772173e+03,2.417277e+03
2.783744e+03,2.407858e+03
2.795314e+03,2.345073e+03
2.806885e+03,2.378951e+03
2.818456e+03,2.339285e+03
2.830027e+03,2.336831e+03
2.841598e+03,2.280651e+03
2.853168e+03,2.303968e+03
2.864739e+03,2.278609e+03
2.876310e+03,2.233683e+03
2.887881e+03,2.217119e+03
2.899452e+03,2.213459e+03
2.911022e+03,2.153320e+03
2.922593e+03,2.142523e+03
2.934164e+03,2.140279e+03
2.945735e+03,2.096669e+03
2.957306e+03,2.159923e+03
2.968876e+03,2.060774e+03
2.980447e+03,2.056068e+03
2.992018e+03,2.014353e+03
3.003589e+03,1.997818e+03
3.015160e+03,1.996684e+03
3.026730e+03,1.981398e+03
3.038301e+03,1.960335e+03
3.049872e+03,1.990161e+03
3.061443e+03,1.971221e+03
3.073014e+03,1.974340e+03
3.084584e+03,1.936204e+03
3.096155e+03,1.948691e+03
3.107726e+03,1.875694e+03
3.119297e+03,1.911366e+03
3.130868e+03,1.932686e+03
3.142438e+03,1.913997e+03
3.154009e+03,1.964094e+03
3.165580e+03,1.972195e+03
3.177151e+03,1.894025e+03
3.188722e+03,1.884628e+03
3.200292e+03,1.939989e+03
3.211863e+03,0.000000e+00
3.223434e+03,0.000000e+00
3.235005e+03,0.000000e+00
3.246576e+03,0.000000e+00
3.258146e+03,0.000000e+00
3.269717e+03,0.000000e+00
3.281288e+03,0.000000e+00
3.292859e+03,0.000000e+00
3.304430e+03,0.000000e+00
3.316000e+03,0.000000e+00
3.327571e+03,0.000000e+00
3.339142e+03,0.000000e+00
3.350713e+03,0.000000e+00
3.362284e+03,0.000000e+00
3.373854e+03,0.000000e+00
3.385425e+03,0.000000e+00
3.396996e+03,0.000000e+00
3.408567e+03,0.000000e+00
3.420138e+03,0.000000e+00
3.431708e+03,0.000000e+00
3.443279e+03,0.000000e+00
3.454850e+03,0.000000e+00
3.466421e+03,0.000000e+00
3.477992e+03,0.000000e+00
3.489563e+03,0.000000e+00
3.500169e+03,0.000000e+00