File: RAMAN_data/23052023_r3/blue fibre17.CSV
9.931763e+01,0.000000e+00
1.108884e+02,0.000000e+00
1.224592e+02,0.000000e+00
1.340300e+02,0.000000e+00
1.456008e+02,0.000000e+00
1.571716e+02,0.000000e+00
1.687424e+02,0.000000e+00
1.803132e+02,0.000000e+00
1.918840e+02,0.000000e+00
2.034548e+02,3.260167e+03
2.150256e+02,3.277048e+03
2.265964e+02,3.314598e+03
2.381673e+02,3.368684e+03
2.497381e+02,3.426677e+03
2.613088e+02,3.438543e+03
2.728796e+02,3.505729e+03
2.844504e+02,3.549046e+03
2.960212e+02,3.550411e+03
3.075920e+02,3.548264e+03
3.191628e+02,3.592953e+03
3.307336e+02,3.624510e+03
3.423044e+02,3.623440e+03
3.538752e+02,3.636608e+03
3.654461e+02,3.654050e+03
3.770169e+02,3.703553e+03
3.885877e+02,3.682717e+03
4.001585e+02,3.707865e+03
4.117293e+02,3.703248e+03
4.233001e+02,3.730632e+03
4.348709e+02,3.741446e+03
4.464417e+02,3.750583e+03
4.580125e+02,3.754476e+03
4.695833e+02,3.739381e+03
4.811541e+02,3.761827e+03
4.927249e+02,3.758154e+03
5.042957e+02,3.771382e+03
5.158665e+02,3.773450e+03
5.274373e+02,3.769357e+03
5.390081e+02,3.768936e+03
5.505789e+02,3.825575e+03
5.621497e+02,3.808605e+03
5.737205e+02,3.761805e+03
5.852913e+02,3.732946e+03
5.968621e+02,3.781669e+03
6.084329e+02,3.792862e+03
6.200037e+02,3.718949e+03
6.315745e+02,3.720626e+03
6.431453e+02,3.703343e+03
6.547161e+02,3.680610e+03
6.662869e+02,3.676799e+03
6.778577e+02,3.636268e+03
6.894285e+02,3.630841e+03
7.009993e+02,3.619349e+03
7.125701e+02,3.589982e+03
7.241409e+02,3.569791e+03
7.357117e+02,3.562632e+03
7.472825e+02,3.555592e+03
7.588533e+02,3.529874e+03
7.704241e+02,3.507105e+03
7.819949e+02,3.472876e+03
7.935657e+02,3.485068e+03
8.051365e+02,3.442673e+03
8.167073e+02,3.406822e+03
8.282781e+02,3.411295e+03
8.398489e+02,3.386451e+03
8.514197e+02,3.343523e+03
8.629905e+02,3.324917e+03
8.745613e+02,3.325029e+03
8.861321e+02,3.283208e+03
8.977029e+02,3.267445e+03
9.092737e+02,3.221352e+03
9.208445e+02,3.192291e+03
9.324153e+02,3.184155e+03
9.439861e+02,3.136268e+03
9.555569e+02,3.122026e+03
9.671277e+02,3.101912e+03
9.786985e+02,3.060358e+03
9.902693e+02,3.027129e+03
1.001840e+03,2.995347e+03
1.013411e+03,2.980742e+03
1.024982e+03,2.960129e+03
1.036552e+03,2.934322e+03
1.048123e+03,2.914297e+03
1.059694e+03,2.890961e+03
1.071265e+03,2.887467e+03
1.082836e+03,2.891530e+03
1.094406e+03,2.838335e+03
1.105977e+03,2.820365e+03
1.117548e+03,2.804395e+03
1.129119e+03,2.750479e+03
1.140690e+03,2.718776e+03
1.152261e+03,2.706137e+03
1.163831e+03,2.672590e+03
1.175402e+03,2.638480e+03
1.186973e+03,2.628230e+03
1.198544e+03,2.604005e+03
1.210115e+03,2.577554e+03
1.221685e+03,2.557014e+03
1.233256e+03,2.524726e+03
1.244827e+03,2.516329e+03
1.256398e+03,2.471143e+03
1.267969e+03,2.446783e+03
1.279539e+03,2.425282e+03
1.291110e+03,2.414044e+03
1.302681e+03,2.398919e+03
1.314252e+03,2.381497e+03
1.325823e+03,2.355084e+03
1.337393e+03,2.364683e+03
1.348964e+03,2.322333e+03
1.360535e+03,2.300363e+03
1.372106e+03,2.294505e+03
1.383677e+03,2.283593e+03
1.395247e+03,2.239475e+03
1.406818e+03,2.212024e+03
1.418389e+03,2.198857e+03
1.429960e+03,2.194298e+03
1.441531e+03,2.160290e+03
1.453101e+03,2.162253e+03
1.464672e+03,2.131347e+03
1.476243e+03,2.117443e+03
1.487814e+03,2.084051e+03
1.499385e+03,2.084525e+03
1.510955e+03,2.052119e+03
1.522526e+03,2.056644e+03
1.534097e+03,2.026156e+03
1.545668e+03,2.000022e+03
1.557239e+03,1.996651e+03
1.568809e+03,2.052995e+03
1.580380e+03,2.011362e+03
1.591951e+03,1.968408e+03
1.603522e+03,1.944001e+03
1.615093e+03,1.921410e+03
1.626663e+03,1.912408e+03
1.638234e+03,1.897399e+03
1.649805e+03,1.878584e+03
1.661376e+03,1.861702e+03
1.672947e+03,1.856461e+03
1.684517e+03,1.830785e+03
1.696088e+03,1.823406e+03
1.707659e+03,1.795500e+03
1.719230e+03,1.768374e+03
1.730801e+03,1.767642e+03
1.742371e+03,1.750575e+03
1.753942e+03,1.733777e+03
1.765513e+03,1.731473e+03
1.777084e+03,1.707626e+03
1.788655e+03,1.684844e+03
1.800225e+03,1.690348e+03
1.811796e+03,1.654209e+03
1.823367e+03,1.633376e+03
1.834938e+03,1.639281e+03
1.846509e+03,1.609879e+03
1.858079e+03,1.607358e+03
1.869650e+03,1.578116e+03
1.881221e+03,1.562722e+03
1.892792e+03,1.535321e+03
1.904363e+03,1.528106e+03
1.915933e+03,1.519795e+03
1.927504e+03,1.510939e+03
1.939075e+03,1.483611e+03
1.950646e+03,1.461333e+03
1.962217e+03,1.460443e+03
1.973787e+03,1.442897e+03
1.985358e+03,1.428338e+03
1.996929e+03,1.407517e+03
2.008500e+03,1.402209e+03
2.020071e+03,1.386745e+03
2.031641e+03,1.378012e+03
2.043212e+03,1.351050e+03
2.054783e+03,1.330684e+03
2.066354e+03,1.331377e+03
2.077925e+03,1.304699e+03
2.089496e+03,1.304709e+03
2.101066e+03,1.271235e+03
2.112637e+03,1.265664e+03
2.124208e+03,1.256124e+03
2.135779e+03,1.229564e+03
2.147350e+03,1.206708e+03
2.158920e+03,1.204848e+03
2.170491e+03,1.191969e+03
2.182062e+03,1.167002e+03
2.193633e+03,1.145798e+03
2.205204e+03,1.154572e+03
2.216774e+03,1.121814e+03
2.228345e+03,1.110726e+03
2.239916e+03,1.079055e+03
2.251487e+03,1.096938e+03
2.263058e+03,1.069885e+03
2.274628e+03,1.036628e+03
2.286199e+03,1.026145e+03
2.297770e+03,1.029237e+03
2.309341e+03,1.002300e+03
2.320912e+03,1.002648e+03
2.332482e+03,9.800002e+02
2.344053e+03,9.735217e+02
2.355624e+03,9.689154e+02
2.367195e+03,9.570203e+02
2.378766e+03,9.210674e+02
2.390336e+03,9.171968e+02
2.401907e+03,9.177706e+02
2.413478e+03,9.013453e+02
2.425049e+03,8.806171e+02
2.436620e+03,8.849556e+02
2.448190e+03,8.582355e+02
2.459761e+03,8.432896e+02
2.471332e+03,8.440066e+02
2.482903e+03,8.310126e+02
2.494474e+03,8.229860e+02
2.506044e+03,8.106837e+02
2.517615e+03,7.986689e+02
2.529186e+03,7.758287e+02
2.540757e+03,7.722867e+02
2.552328e+03,7.830652e+02
2.563898e+03,7.613009e+02
2.575469e+03,7.574977e+02
2.587040e+03,7.502928e+02
2.598611e+03,7.379391e+02
2.610182e+03,7.250253e+02
2.621752e+03,7.170639e+02
2.633323e+03,6.972335e+02
2.644894e+03,7.087894e+02
2.656465e+03,6.963124e+02
2.668036e+03,6.865384e+02
2.679606e+03,6.638281e+02
2.691177e+03,6.748775e+02
2.702748e+03,6.810096e+02
2.714319e+03,6.450652e+02
2.725890e+03,6.647948e+02
2.737460e+03,6.485914e+02
2.749031e+03,6.354524e+02
2.760602e+03,6.385500e+02
2.772173e+03,6.265612e+02
2.783744e+03,6.213351e+02
2.795314e+03,6.164537e+02
2.806885e+03,6.116232e+02
2.818456e+03,6.108717e+02
2.830027e+03,6.245880e+02
2.841598e+03,5.861747e+02
2.853168e+03,6.026058e+02
2.864739e+03,5.853273e+02
2.876310e+03,5.891078e+02
2.887881e+03,6.086279e+02
2.899452e+03,6.002504e+02
2.911022e+03,5.936047e+02
2.922593e+03,5.615129e+02
2.934164e+03,5.852382e+02
2.945735e+03,5.711116e+02
2.957306e+03,6.149218e+02
2.968876e+03,5.683815e+02
2.980447e+03,5.340828e+02
2.992018e+03,5.340778e+02
3.003589e+03,5.420020e+02
3.015160e+03,5.395693e+02
3.026730e+03,5.119619e+02
3.038301e+03,5.243915e+02
3.049872e+03,4.970240e+02
3.061443e+03,5.154088e+02
3.073014e+03,5.263943e+02
3.084584e+03,5.067225e+02
3.096155e+03,5.019739e+02
3.107726e+03,4.951342e+02
3.119297e+03,5.010052e+02
3.130868e+03,5.195272e+02
3.142438e+03,5.402405e+02
3.154009e+03,5.044857e+02
3.165580e+03,5.205995e+02
3.177151e+03,5.217615e+02
3.188722e+03,5.302131e+02
3.200292e+03,5.567350e+02
3.211863e+03,0.000000e+00
3.223434e+03,0.000000e+00
3.235005e+03,0.000000e+00
3.246576e+03,0.000000e+00
3.258146e+03,0.000000e+00
3.269717e+03,0.000000e+00
3.281288e+03,0.000000e+00
3.292859e+03,0.000000e+00
3.304430e+03,0.000000e+00
3.316000e+03,0.000000e+00
3.327571e+03,0.000000e+00
3.339142e+03,0.000000e+00
3.350713e+03,0.000000e+00
3.362284e+03,0.000000e+00
3.373854e+03,0.000000e+00
3.385425e+03,0.000000e+00
3.396996e+03,0.000000e+00
3.408567e+03,0.000000e+00
3.420138e+03,0.000000e+00
3.431708e+03,0.000000e+00
3.443279e+03,0.000000e+00
3.454850e+03,0.000000e+00
3.466421e+03,0.000000e+00
3.477992e+03,0.000000e+00
3.489563e+03,0.000000e+00
3.500169e+03,0.000000e+00