File: RAMAN_data/23052023_r3/blue fibre5.CSV
9.931763e+01,0.000000e+00
1.108884e+02,0.000000e+00
1.224592e+02,0.000000e+00
1.340300e+02,0.000000e+00
1.456008e+02,0.000000e+00
1.571716e+02,0.000000e+00
1.687424e+02,0.000000e+00
1.803132e+02,0.000000e+00
1.918840e+02,0.000000e+00
2.034548e+02,5.284385e+03
2.150256e+02,5.346655e+03
2.265964e+02,5.428662e+03
2.381673e+02,5.537640e+03
2.497381e+02,5.640760e+03
2.613088e+02,5.702272e+03
2.728796e+02,5.806695e+03
2.844504e+02,5.867694e+03
2.960212e+02,5.875365e+03
3.075920e+02,5.909341e+03
3.191628e+02,6.005615e+03
3.307336e+02,6.039483e+03
3.423044e+02,6.098043e+03
3.538752e+02,6.134153e+03
3.654461e+02,6.135733e+03
3.770169e+02,6.225733e+03
3.885877e+02,6.239039e+03
4.001585e+02,6.269363e+03
4.117293e+02,6.289947e+03
4.233001e+02,6.316258e+03
4.348709e+02,6.344024e+03
4.464417e+02,6.336573e+03
4.580125e+02,6.351314e+03
4.695833e+02,6.390595e+03
4.811541e+02,6.370051e+03
4.927249e+02,6.386597e+03
5.042957e+02,6.387579e+03
5.158665e+02,6.399721e+03
5.274373e+02,6.417179e+03
5.390081e+02,6.437446e+03
5.505789e+02,6.454444e+03
5.621497e+02,6.468936e+03
5.737205e+02,6.361202e+03
5.852913e+02,6.353089e+03
5.968621e+02,6.395247e+03
6.084329e+02,6.417419e+03
6.200037e+02,6.318674e+03
6.315745e+02,6.300174e+03
6.431453e+02,6.272206e+03
6.547161e+02,6.253536e+03
6.662869e+02,6.226231e+03
6.778577e+02,6.161140e+03
6.894285e+02,6.136338e+03
7.009993e+02,6.078636e+03
7.125701e+02,6.064411e+03
7.241409e+02,6.016995e+03
7.357117e+02,5.941122e+03
7.472825e+02,5.960541e+03
7.588533e+02,5.901685e+03
7.704241e+02,5.872197e+03
7.819949e+02,5.833128e+03
7.935657e+02,5.793103e+03
8.051365e+02,5.719795e+03
8.167073e+02,5.668785e+03
8.282781e+02,5.640510e+03
8.398489e+02,5.619778e+03
8.514197e+02,5.557476e+03
8.629905e+02,5.524983e+03
8.745613e+02,5.446396e+03
8.861321e+02,5.458908e+03
8.977029e+02,5.390320e+03
9.092737e+02,5.323584e+03
9.208445e+02,5.245256e+03
9.324153e+02,5.209709e+03
9.439861e+02,5.174920e+03
9.555569e+02,5.102995e+03
9.671277e+02,5.072496e+03
9.786985e+02,5.004881e+03
9.902693e+02,4.979170e+03
1.001840e+03,4.916326e+03
1.013411e+03,4.856444e+03
1.024982e+03,4.817157e+03
1.036552e+03,4.786668e+03
1.048123e+03,4.723845e+03
1.059694e+03,4.686880e+03
1.071265e+03,4.657357e+03
1.082836e+03,4.647335e+03
1.094406e+03,4.571907e+03
1.105977e+03,4.512138e+03
1.117548e+03,4.499195e+03
1.129119e+03,4.413396e+03
1.140690e+03,4.364292e+03
1.152261e+03,4.326159e+03
1.163831e+03,4.282455e+03
1.175402e+03,4.220446e+03
1.186973e+03,4.198986e+03
1.198544e+03,4.160344e+03
1.210115e+03,4.100392e+03
1.221685e+03,4.094375e+03
1.233256e+03,4.058397e+03
1.244827e+03,3.988386e+03
1.256398e+03,3.963896e+03
1.267969e+03,3.915773e+03
1.279539e+03,3.890829e+03
1.291110e+03,3.848010e+03
1.302681e+03,3.809802e+03
1.314252e+03,3.801836e+03
1.325823e+03,3.764040e+03
1.337393e+03,3.733682e+03
1.348964e+03,3.696868e+03
1.360535e+03,3.672986e+03
1.372106e+03,3.645661e+03
1.383677e+03,3.598385e+03
1.395247e+03,3.560394e+03
1.406818e+03,3.527241e+03
1.418389e+03,3.503300e+03
1.429960e+03,3.479873e+03
1.441531e+03,3.452271e+03
1.453101e+03,3.444635e+03
1.464672e+03,3.411386e+03
1.476243e+03,3.364379e+03
1.487814e+03,3.337012e+03
1.499385e+03,3.324072e+03
1.510955e+03,3.288839e+03
1.522526e+03,3.266380e+03
1.534097e+03,3.219707e+03
1.545668e+03,3.192704e+03
1.557239e+03,3.208440e+03
1.568809e+03,3.365649e+03
1.580380e+03,3.247243e+03
1.591951e+03,3.107609e+03
1.603522e+03,3.085085e+03
1.615093e+03,3.048248e+03
1.626663e+03,3.042882e+03
1.638234e+03,2.992918e+03
1.649805e+03,2.965479e+03
1.661376e+03,2.940546e+03
1.672947e+03,2.916319e+03
1.684517e+03,2.876904e+03
1.696088e+03,2.864180e+03
1.707659e+03,2.832218e+03
1.719230e+03,2.794147e+03
1.730801e+03,2.771399e+03
1.742371e+03,2.750950e+03
1.753942e+03,2.731749e+03
1.765513e+03,2.685948e+03
1.777084e+03,2.649214e+03
1.788655e+03,2.632692e+03
1.800225e+03,2.622058e+03
1.811796e+03,2.586786e+03
1.823367e+03,2.553155e+03
1.834938e+03,2.545777e+03
1.846509e+03,2.506392e+03
1.858079e+03,2.467925e+03
1.869650e+03,2.449752e+03
1.881221e+03,2.429393e+03
1.892792e+03,2.403702e+03
1.904363e+03,2.379872e+03
1.915933e+03,2.348531e+03
1.927504e+03,2.329213e+03
1.939075e+03,2.321041e+03
1.950646e+03,2.277664e+03
1.962217e+03,2.254917e+03
1.973787e+03,2.225469e+03
1.985358e+03,2.195304e+03
1.996929e+03,2.161896e+03
2.008500e+03,2.131301e+03
2.020071e+03,2.121757e+03
2.031641e+03,2.087150e+03
2.043212e+03,2.060982e+03
2.054783e+03,2.024943e+03
2.066354e+03,2.010325e+03
2.077925e+03,1.984199e+03
2.089496e+03,1.969866e+03
2.101066e+03,1.934354e+03
2.112637e+03,1.906658e+03
2.124208e+03,1.896458e+03
2.135779e+03,1.853600e+03
2.147350e+03,1.828442e+03
2.158920e+03,1.808837e+03
2.170491e+03,1.824061e+03
2.182062e+03,1.772337e+03
2.193633e+03,1.733866e+03
2.205204e+03,1.719762e+03
2.216774e+03,1.717426e+03
2.228345e+03,1.668850e+03
2.239916e+03,1.649567e+03
2.251487e+03,1.622852e+03
2.263058e+03,1.592636e+03
2.274628e+03,1.577321e+03
2.286199e+03,1.548975e+03
2.297770e+03,1.556164e+03
2.309341e+03,1.508791e+03
2.320912e+03,1.507794e+03
2.332482e+03,1.479451e+03
2.344053e+03,1.466256e+03
2.355624e+03,1.457375e+03
2.367195e+03,1.416319e+03
2.378766e+03,1.404218e+03
2.390336e+03,1.384785e+03
2.401907e+03,1.382788e+03
2.413478e+03,1.348619e+03
2.425049e+03,1.334994e+03
2.436620e+03,1.311962e+03
2.448190e+03,1.300922e+03
2.459761e+03,1.275706e+03
2.471332e+03,1.264573e+03
2.482903e+03,1.243012e+03
2.494474e+03,1.219236e+03
2.506044e+03,1.222134e+03
2.517615e+03,1.204312e+03
2.529186e+03,1.178852e+03
2.540757e+03,1.163899e+03
2.552328e+03,1.168041e+03
2.563898e+03,1.134149e+03
2.575469e+03,1.133030e+03
2.587040e+03,1.108899e+03
2.598611e+03,1.082664e+03
2.610182e+03,1.095019e+03
2.621752e+03,1.090516e+03
2.633323e+03,1.049961e+03
2.644894e+03,1.026299e+03
2.656465e+03,1.039621e+03
2.668036e+03,1.016542e+03
2.679606e+03,1.011177e+03
2.691177e+03,9.920549e+02
2.702748e+03,9.915497e+02
2.714319e+03,9.741236e+02
2.725890e+03,9.543863e+02
2.737460e+03,9.445292e+02
2.749031e+03,9.550579e+02
2.760602e+03,9.342923e+02
2.772173e+03,9.075333e+02
2.783744e+03,9.125358e+02
2.795314e+03,8.943439e+02
2.806885e+03,9.454594e+02
2.818456e+03,8.874869e+02
2.830027e+03,8.622037e+02
2.841598e+03,8.587575e+02
2.853168e+03,8.666281e+02
2.864739e+03,8.330752e+02
2.876310e+03,8.534442e+02
2.887881e+03,8.732248e+02
2.899452e+03,8.621895e+02
2.911022e+03,8.346808e+02
2.922593e+03,8.173575e+02
2.934164e+03,8.158551e+02
2.945735e+03,8.164740e+02
2.957306e+03,8.540036e+02
2.968876e+03,7.893292e+02
2.980447e+03,7.811406e+02
2.992018e+03,7.878743e+02
3.003589e+03,7.624987e+02
3.015160e+03,7.707518e+02
3.026730e+03,7.613781e+02
3.038301e+03,7.680276e+02
3.049872e+03,7.486381e+02
3.061443e+03,7.575670e+02
3.073014e+03,7.480078e+02
3.084584e+03,7.454040e+02
3.096155e+03,7.365756e+02
3.107726e+03,7.062634e+02
3.119297e+03,7.394278e+02
3.130868e+03,7.632253e+02
3.142438e+03,7.362098e+02
3.154009e+03,7.537360e+02
3.165580e+03,7.390625e+02
3.177151e+03,7.426420e+02
3.188722e+03,7.491982e+02
3.200292e+03,7.824808e+02
3.211863e+03,0.000000e+00
3.223434e+03,0.000000e+00
3.235005e+03,0.000000e+00
3.246576e+03,0.000000e+00
3.258146e+03,0.000000e+00
3.269717e+03,0.000000e+00
3.281288e+03,0.000000e+00
3.292859e+03,0.000000e+00
3.304430e+03,0.000000e+00
3.316000e+03,0.000000e+00
3.327571e+03,0.000000e+00
3.339142e+03,0.000000e+00
3.350713e+03,0.000000e+00
3.362284e+03,0.000000e+00
3.373854e+03,0.000000e+00
3.385425e+03,0.000000e+00
3.396996e+03,0.000000e+00
3.408567e+03,0.000000e+00
3.420138e+03,0.000000e+00
3.431708e+03,0.000000e+00
3.443279e+03,0.000000e+00
3.454850e+03,0.000000e+00
3.466421e+03,0.000000e+00
3.477992e+03,0.000000e+00
3.489563e+03,0.000000e+00
3.500169e+03,0.000000e+00