File: RAMAN_data/23052023_r3/blue fibre3.CSV
9.931763e+01,0.000000e+00
1.108884e+02,0.000000e+00
1.224592e+02,0.000000e+00
1.340300e+02,0.000000e+00
1.456008e+02,0.000000e+00
1.571716e+02,0.000000e+00
1.687424e+02,0.000000e+00
1.803132e+02,0.000000e+00
1.918840e+02,0.000000e+00
2.034548e+02,3.567156e+03
2.150256e+02,3.612350e+03
2.265964e+02,3.655884e+03
2.381673e+02,3.715635e+03
2.497381e+02,3.816173e+03
2.613088e+02,3.843892e+03
2.728796e+02,3.932047e+03
2.844504e+02,3.998548e+03
2.960212e+02,3.959342e+03
3.075920e+02,3.962056e+03
3.191628e+02,4.008820e+03
3.307336e+02,4.019434e+03
3.423044e+02,4.070708e+03
3.538752e+02,4.109372e+03
3.654461e+02,4.131517e+03
3.770169e+02,4.178046e+03
3.885877e+02,4.188388e+03
4.001585e+02,4.204194e+03
4.117293e+02,4.232654e+03
4.233001e+02,4.253078e+03
4.348709e+02,4.281577e+03
4.464417e+02,4.304178e+03
4.580125e+02,4.325488e+03
4.695833e+02,4.347047e+03
4.811541e+02,4.333317e+03
4.927249e+02,4.341218e+03
5.042957e+02,4.375098e+03
5.158665e+02,4.391411e+03
5.274373e+02,4.416240e+03
5.390081e+02,4.492824e+03
5.505789e+02,4.528521e+03
5.621497e+02,4.537018e+03
5.737205e+02,4.444375e+03
5.852913e+02,4.444093e+03
5.968621e+02,4.476748e+03
6.084329e+02,4.544275e+03
6.200037e+02,4.419798e+03
6.315745e+02,4.407643e+03
6.431453e+02,4.395809e+03
6.547161e+02,4.380171e+03
6.662869e+02,4.366667e+03
6.778577e+02,4.369001e+03
6.894285e+02,4.328301e+03
7.009993e+02,4.312176e+03
7.125701e+02,4.302862e+03
7.241409e+02,4.270750e+03
7.357117e+02,4.240886e+03
7.472825e+02,4.258848e+03
7.588533e+02,4.230038e+03
7.704241e+02,4.230380e+03
7.819949e+02,4.216143e+03
7.935657e+02,4.215619e+03
8.051365e+02,4.131457e+03
8.167073e+02,4.116825e+03
8.282781e+02,4.095626e+03
8.398489e+02,4.079955e+03
8.514197e+02,4.039319e+03
8.629905e+02,4.028870e+03
8.745613e+02,3.994111e+03
8.861321e+02,4.010420e+03
8.977029e+02,3.946550e+03
9.092737e+02,3.898002e+03
9.208445e+02,3.859809e+03
9.324153e+02,3.849740e+03
9.439861e+02,3.807309e+03
9.555569e+02,3.783365e+03
9.671277e+02,3.753806e+03
9.786985e+02,3.723616e+03
9.902693e+02,3.692992e+03
1.001840e+03,3.652955e+03
1.013411e+03,3.642557e+03
1.024982e+03,3.612519e+03
1.036552e+03,3.591877e+03
1.048123e+03,3.541613e+03
1.059694e+03,3.540326e+03
1.071265e+03,3.541594e+03
1.082836e+03,3.538501e+03
1.094406e+03,3.470170e+03
1.105977e+03,3.432485e+03
1.117548e+03,3.424481e+03
1.129119e+03,3.373838e+03
1.140690e+03,3.335723e+03
1.152261e+03,3.313205e+03
1.163831e+03,3.282517e+03
1.175402e+03,3.253675e+03
1.186973e+03,3.243766e+03
1.198544e+03,3.216699e+03
1.210115e+03,3.170446e+03
1.221685e+03,3.165800e+03
1.233256e+03,3.145924e+03
1.244827e+03,3.125280e+03
1.256398e+03,3.074501e+03
1.267969e+03,3.024785e+03
1.279539e+03,3.036444e+03
1.291110e+03,3.021841e+03
1.302681e+03,2.975455e+03
1.314252e+03,2.984741e+03
1.325823e+03,2.935963e+03
1.337393e+03,2.937392e+03
1.348964e+03,2.906712e+03
1.360535e+03,2.880651e+03
1.372106e+03,2.873727e+03
1.383677e+03,2.843037e+03
1.395247e+03,2.809059e+03
1.406818e+03,2.801816e+03
1.418389e+03,2.764092e+03
1.429960e+03,2.746469e+03
1.441531e+03,2.736631e+03
1.453101e+03,2.744448e+03
1.464672e+03,2.688685e+03
1.476243e+03,2.674366e+03
1.487814e+03,2.659560e+03
1.499385e+03,2.643751e+03
1.510955e+03,2.631698e+03
1.522526e+03,2.606414e+03
1.534097e+03,2.574678e+03
1.545668e+03,2.558565e+03
1.557239e+03,2.553994e+03
1.568809e+03,2.691765e+03
1.580380e+03,2.615659e+03
1.591951e+03,2.505092e+03
1.603522e+03,2.478758e+03
1.615093e+03,2.465085e+03
1.626663e+03,2.451454e+03
1.638234e+03,2.415785e+03
1.649805e+03,2.385768e+03
1.661376e+03,2.378480e+03
1.672947e+03,2.360995e+03
1.684517e+03,2.337903e+03
1.696088e+03,2.311594e+03
1.707659e+03,2.290690e+03
1.719230e+03,2.256481e+03
1.730801e+03,2.251865e+03
1.742371e+03,2.244677e+03
1.753942e+03,2.223571e+03
1.765513e+03,2.191827e+03
1.777084e+03,2.165885e+03
1.788655e+03,2.146244e+03
1.800225e+03,2.125189e+03
1.811796e+03,2.116474e+03
1.823367e+03,2.104736e+03
1.834938e+03,2.081784e+03
1.846509e+03,2.058867e+03
1.858079e+03,2.045330e+03
1.869650e+03,2.021902e+03
1.881221e+03,1.987225e+03
1.892792e+03,1.999320e+03
1.904363e+03,1.957631e+03
1.915933e+03,1.928166e+03
1.927504e+03,1.933662e+03
1.939075e+03,1.894332e+03
1.950646e+03,1.887543e+03
1.962217e+03,1.860111e+03
1.973787e+03,1.847464e+03
1.985358e+03,1.841435e+03
1.996929e+03,1.823786e+03
2.008500e+03,1.789210e+03
2.020071e+03,1.768208e+03
2.031641e+03,1.747428e+03
2.043212e+03,1.707137e+03
2.054783e+03,1.703524e+03
2.066354e+03,1.691197e+03
2.077925e+03,1.685684e+03
2.089496e+03,1.654627e+03
2.101066e+03,1.628455e+03
2.112637e+03,1.614689e+03
2.124208e+03,1.600705e+03
2.135779e+03,1.588699e+03
2.147350e+03,1.527257e+03
2.158920e+03,1.526713e+03
2.170491e+03,1.523792e+03
2.182062e+03,1.495964e+03
2.193633e+03,1.487974e+03
2.205204e+03,1.482752e+03
2.216774e+03,1.448059e+03
2.228345e+03,1.423473e+03
2.239916e+03,1.411260e+03
2.251487e+03,1.389652e+03
2.263058e+03,1.381835e+03
2.274628e+03,1.363197e+03
2.286199e+03,1.336853e+03
2.297770e+03,1.329681e+03
2.309341e+03,1.319330e+03
2.320912e+03,1.298909e+03
2.332482e+03,1.281100e+03
2.344053e+03,1.275129e+03
2.355624e+03,1.254188e+03
2.367195e+03,1.222407e+03
2.378766e+03,1.212267e+03
2.390336e+03,1.207907e+03
2.401907e+03,1.177382e+03
2.413478e+03,1.176783e+03
2.425049e+03,1.167930e+03
2.436620e+03,1.145671e+03
2.448190e+03,1.140112e+03
2.459761e+03,1.112677e+03
2.471332e+03,1.117722e+03
2.482903e+03,1.104001e+03
2.494474e+03,1.088062e+03
2.506044e+03,1.070716e+03
2.517615e+03,1.052015e+03
2.529186e+03,1.044463e+03
2.540757e+03,1.027345e+03
2.552328e+03,1.022876e+03
2.563898e+03,1.018360e+03
2.575469e+03,9.976445e+02
2.587040e+03,9.728381e+02
2.598611e+03,9.731278e+02
2.610182e+03,9.691334e+02
2.621752e+03,9.723991e+02
2.633323e+03,9.368766e+02
2.644894e+03,9.212659e+02
2.656465e+03,9.227560e+02
2.668036e+03,9.068904e+02
2.679606e+03,9.026229e+02
2.691177e+03,8.792655e+02
2.702748e+03,8.894122e+02
2.714319e+03,8.965258e+02
2.725890e+03,8.763990e+02
2.737460e+03,8.457393e+02
2.749031e+03,8.517758e+02
2.760602e+03,8.457231e+02
2.772173e+03,8.408121e+02
2.783744e+03,8.238386e+02
2.795314e+03,8.228004e+02
2.806885e+03,8.235341e+02
2.818456e+03,8.068528e+02
2.830027e+03,8.027486e+02
2.841598e+03,7.879532e+02
2.853168e+03,7.770178e+02
2.864739e+03,7.890071e+02
2.876310e+03,7.631675e+02
2.887881e+03,8.071551e+02
2.899452e+03,7.863281e+02
2.911022e+03,7.814517e+02
2.922593e+03,7.696403e+02
2.934164e+03,7.573617e+02
2.945735e+03,7.534486e+02
2.957306e+03,7.788283e+02
2.968876e+03,7.371347e+02
2.980447e+03,7.288953e+02
2.992018e+03,6.815906e+02
3.003589e+03,7.060524e+02
3.015160e+03,7.037400e+02
3.026730e+03,7.110501e+02
3.038301e+03,7.178383e+02
3.049872e+03,6.937316e+02
3.061443e+03,6.721002e+02
3.073014e+03,7.075703e+02
3.084584e+03,6.965872e+02
3.096155e+03,6.853519e+02
3.107726e+03,6.703961e+02
3.119297e+03,6.891013e+02
3.130868e+03,7.021509e+02
3.142438e+03,7.086449e+02
3.154009e+03,6.671325e+02
3.165580e+03,6.687515e+02
3.177151e+03,6.887186e+02
3.188722e+03,6.701624e+02
3.200292e+03,7.133625e+02
3.211863e+03,0.000000e+00
3.223434e+03,0.000000e+00
3.235005e+03,0.000000e+00
3.246576e+03,0.000000e+00
3.258146e+03,0.000000e+00
3.269717e+03,0.000000e+00
3.281288e+03,0.000000e+00
3.292859e+03,0.000000e+00
3.304430e+03,0.000000e+00
3.316000e+03,0.000000e+00
3.327571e+03,0.000000e+00
3.339142e+03,0.000000e+00
3.350713e+03,0.000000e+00
3.362284e+03,0.000000e+00
3.373854e+03,0.000000e+00
3.385425e+03,0.000000e+00
3.396996e+03,0.000000e+00
3.408567e+03,0.000000e+00
3.420138e+03,0.000000e+00
3.431708e+03,0.000000e+00
3.443279e+03,0.000000e+00
3.454850e+03,0.000000e+00
3.466421e+03,0.000000e+00
3.477992e+03,0.000000e+00
3.489563e+03,0.000000e+00
3.500169e+03,0.000000e+00