File: RAMAN_data/23052023_r1/black fibre2.CSV
9.931763e+01,0.000000e+00
1.108884e+02,0.000000e+00
1.224592e+02,0.000000e+00
1.340300e+02,0.000000e+00
1.456008e+02,0.000000e+00
1.571716e+02,0.000000e+00
1.687424e+02,0.000000e+00
1.803132e+02,0.000000e+00
1.918840e+02,0.000000e+00
2.034548e+02,9.669276e+02
2.150256e+02,9.753002e+02
2.265964e+02,9.698126e+02
2.381673e+02,9.735753e+02
2.497381e+02,9.702689e+02
2.613088e+02,9.755237e+02
2.728796e+02,9.792930e+02
2.844504e+02,9.839445e+02
2.960212e+02,9.834530e+02
3.075920e+02,9.793962e+02
3.191628e+02,9.866564e+02
3.307336e+02,9.941985e+02
3.423044e+02,9.962000e+02
3.538752e+02,9.930583e+02
3.654461e+02,9.917607e+02
3.770169e+02,1.009188e+03
3.885877e+02,9.976438e+02
4.001585e+02,9.840038e+02
4.117293e+02,9.888041e+02
4.233001e+02,9.858092e+02
4.348709e+02,9.858714e+02
4.464417e+02,9.815291e+02
4.580125e+02,9.813294e+02
4.695833e+02,9.668824e+02
4.811541e+02,9.585844e+02
4.927249e+02,9.622620e+02
5.042957e+02,9.611194e+02
5.158665e+02,9.615525e+02
5.274373e+02,9.602254e+02
5.390081e+02,9.527844e+02
5.505789e+02,9.539198e+02
5.621497e+02,9.466734e+02
5.737205e+02,9.376393e+02
5.852913e+02,9.265445e+02
5.968621e+02,9.413919e+02
6.084329e+02,9.334736e+02
6.200037e+02,9.276580e+02
6.315745e+02,9.189773e+02
6.431453e+02,9.142029e+02
6.547161e+02,9.088409e+02
6.662869e+02,9.146980e+02
6.778577e+02,9.056691e+02
6.894285e+02,9.020362e+02
7.009993e+02,8.924391e+02
7.125701e+02,8.981647e+02
7.241409e+02,8.862853e+02
7.357117e+02,8.833656e+02
7.472825e+02,8.829974e+02
7.588533e+02,8.725804e+02
7.704241e+02,8.534700e+02
7.819949e+02,8.510427e+02
7.935657e+02,8.467732e+02
8.051365e+02,8.485751e+02
8.167073e+02,8.503879e+02
8.282781e+02,8.374075e+02
8.398489e+02,8.373560e+02
8.514197e+02,8.231312e+02
8.629905e+02,8.262430e+02
8.745613e+02,8.400477e+02
8.861321e+02,8.263209e+02
8.977029e+02,8.193178e+02
9.092737e+02,8.030800e+02
9.208445e+02,8.035145e+02
9.324153e+02,7.844896e+02
9.439861e+02,7.799919e+02
9.555569e+02,7.750274e+02
9.671277e+02,7.765987e+02
9.786985e+02,7.672849e+02
9.902693e+02,7.684174e+02
1.001840e+03,7.663170e+02
1.013411e+03,7.636963e+02
1.024982e+03,7.622848e+02
1.036552e+03,7.626573e+02
1.048123e+03,7.569464e+02
1.059694e+03,7.469872e+02
1.071265e+03,7.378052e+02
1.082836e+03,7.566730e+02
1.094406e+03,7.549227e+02
1.105977e+03,7.366437e+02
1.117548e+03,7.429081e+02
1.129119e+03,7.282617e+02
1.140690e+03,7.370923e+02
1.152261e+03,7.313832e+02
1.163831e+03,7.127875e+02
1.175402e+03,7.047404e+02
1.186973e+03,7.026243e+02
1.198544e+03,6.988561e+02
1.210115e+03,6.911100e+02
1.221685e+03,6.849380e+02
1.233256e+03,6.768033e+02
1.244827e+03,6.833066e+02
1.256398e+03,6.768011e+02
1.267969e+03,6.724437e+02
1.279539e+03,6.880723e+02
1.291110e+03,7.121786e+02
1.302681e+03,7.018191e+02
1.314252e+03,7.566638e+02
1.325823e+03,7.316489e+02
1.337393e+03,7.063201e+02
1.348964e+03,6.820555e+02
1.360535e+03,6.978377e+02
1.372106e+03,6.779248e+02
1.383677e+03,6.617064e+02
1.395247e+03,6.448881e+02
1.406818e+03,6.369880e+02
1.418389e+03,6.283876e+02
1.429960e+03,6.255769e+02
1.441531e+03,6.200994e+02
1.453101e+03,6.175930e+02
1.464672e+03,6.193701e+02
1.476243e+03,6.213627e+02
1.487814e+03,6.154753e+02
1.499385e+03,6.063395e+02
1.510955e+03,5.976746e+02
1.522526e+03,5.906955e+02
1.534097e+03,5.857230e+02
1.545668e+03,5.776562e+02
1.557239e+03,5.726791e+02
1.568809e+03,5.834514e+02
1.580380e+03,5.683546e+02
1.591951e+03,5.639587e+02
1.603522e+03,5.625082e+02
1.615093e+03,5.613065e+02
1.626663e+03,5.616731e+02
1.638234e+03,5.555623e+02
1.649805e+03,5.467752e+02
1.661376e+03,5.487687e+02
1.672947e+03,5.383610e+02
1.684517e+03,5.304059e+02
1.696088e+03,5.217148e+02
1.707659e+03,5.267327e+02
1.719230e+03,5.037421e+02
1.730801e+03,5.190226e+02
1.742371e+03,5.071262e+02
1.753942e+03,5.065473e+02
1.765513e+03,5.013497e+02
1.777084e+03,4.985569e+02
1.788655e+03,4.949773e+02
1.800225e+03,4.958447e+02
1.811796e+03,4.870436e+02
1.823367e+03,4.735706e+02
1.834938e+03,4.673771e+02
1.846509e+03,4.612530e+02
1.858079e+03,4.600174e+02
1.869650e+03,4.580110e+02
1.881221e+03,4.455293e+02
1.892792e+03,4.447422e+02
1.904363e+03,4.399950e+02
1.915933e+03,4.451053e+02
1.927504e+03,4.360626e+02
1.939075e+03,4.303448e+02
1.950646e+03,4.303655e+02
1.962217e+03,4.272782e+02
1.973787e+03,4.128225e+02
1.985358e+03,4.149575e+02
1.996929e+03,4.097481e+02
2.008500e+03,3.966223e+02
2.020071e+03,3.970899e+02
2.031641e+03,3.906256e+02
2.043212e+03,3.919228e+02
2.054783e+03,3.784098e+02
2.066354e+03,3.873343e+02
2.077925e+03,3.794811e+02
2.089496e+03,3.747567e+02
2.101066e+03,3.671621e+02
2.112637e+03,3.716665e+02
2.124208e+03,3.671978e+02
2.135779e+03,3.705511e+02
2.147350e+03,3.491991e+02
2.158920e+03,3.446700e+02
2.170491e+03,3.476557e+02
2.182062e+03,3.437749e+02
2.193633e+03,3.282218e+02
2.205204e+03,3.317160e+02
2.216774e+03,3.280079e+02
2.228345e+03,3.318128e+02
2.239916e+03,3.252682e+02
2.251487e+03,3.314102e+02
2.263058e+03,3.144275e+02
2.274628e+03,3.062231e+02
2.286199e+03,3.029103e+02
2.297770e+03,3.065844e+02
2.309341e+03,3.045732e+02
2.320912e+03,2.993219e+02
2.332482e+03,2.927161e+02
2.344053e+03,2.901570e+02
2.355624e+03,2.840340e+02
2.367195e+03,2.829483e+02
2.378766e+03,2.841670e+02
2.390336e+03,2.788462e+02
2.401907e+03,2.805840e+02
2.413478e+03,2.709286e+02
2.425049e+03,2.753794e+02
2.436620e+03,2.719244e+02
2.448190e+03,2.683338e+02
2.459761e+03,2.718938e+02
2.471332e+03,2.575716e+02
2.482903e+03,2.588438e+02
2.494474e+03,2.582718e+02
2.506044e+03,2.471072e+02
2.517615e+03,2.504443e+02
2.529186e+03,2.476750e+02
2.540757e+03,2.517410e+02
2.552328e+03,2.569309e+02
2.563898e+03,2.550115e+02
2.575469e+03,2.562542e+02
2.587040e+03,2.341447e+02
2.598611e+03,2.340367e+02
2.610182e+03,2.401078e+02
2.621752e+03,2.358957e+02
2.633323e+03,2.337485e+02
2.644894e+03,2.289693e+02
2.656465e+03,2.399673e+02
2.668036e+03,2.289211e+02
2.679606e+03,2.267135e+02
2.691177e+03,2.301701e+02
2.702748e+03,2.266013e+02
2.714319e+03,2.206267e+02
2.725890e+03,2.264492e+02
2.737460e+03,2.215393e+02
2.749031e+03,2.235483e+02
2.760602e+03,2.150808e+02
2.772173e+03,2.246696e+02
2.783744e+03,2.115841e+02
2.795314e+03,2.144247e+02
2.806885e+03,2.257109e+02
2.818456e+03,2.178612e+02
2.830027e+03,2.170904e+02
2.841598e+03,2.263364e+02
2.853168e+03,2.277982e+02
2.864739e+03,2.399440e+02
2.876310e+03,2.363168e+02
2.887881e+03,2.525858e+02
2.899452e+03,2.604623e+02
2.911022e+03,2.560162e+02
2.922593e+03,2.447986e+02
2.934164e+03,2.386779e+02
2.945735e+03,2.338054e+02
2.957306e+03,2.867637e+02
2.968876e+03,2.158016e+02
2.980447e+03,2.232908e+02
2.992018e+03,2.146065e+02
3.003589e+03,2.076234e+02
3.015160e+03,2.273678e+02
3.026730e+03,1.960986e+02
3.038301e+03,2.219446e+02
3.049872e+03,2.179326e+02
3.061443e+03,2.112940e+02
3.073014e+03,2.219791e+02
3.084584e+03,2.221968e+02
3.096155e+03,2.236469e+02
3.107726e+03,1.908283e+02
3.119297e+03,2.286815e+02
3.130868e+03,2.354938e+02
3.142438e+03,2.414031e+02
3.154009e+03,2.199450e+02
3.165580e+03,2.301473e+02
3.177151e+03,2.408046e+02
3.188722e+03,2.561796e+02
3.200292e+03,2.732232e+02
3.211863e+03,0.000000e+00
3.223434e+03,0.000000e+00
3.235005e+03,0.000000e+00
3.246576e+03,0.000000e+00
3.258146e+03,0.000000e+00
3.269717e+03,0.000000e+00
3.281288e+03,0.000000e+00
3.292859e+03,0.000000e+00
3.304430e+03,0.000000e+00
3.316000e+03,0.000000e+00
3.327571e+03,0.000000e+00
3.339142e+03,0.000000e+00
3.350713e+03,0.000000e+00
3.362284e+03,0.000000e+00
3.373854e+03,0.000000e+00
3.385425e+03,0.000000e+00
3.396996e+03,0.000000e+00
3.408567e+03,0.000000e+00
3.420138e+03,0.000000e+00
3.431708e+03,0.000000e+00
3.443279e+03,0.000000e+00
3.454850e+03,0.000000e+00
3.466421e+03,0.000000e+00
3.477992e+03,0.000000e+00
3.489563e+03,0.000000e+00
3.500169e+03,0.000000e+00