File: RAMAN_data/23052023_r1/black fibre1.CSV
9.931763e+01,0.000000e+00
1.108884e+02,0.000000e+00
1.224592e+02,0.000000e+00
1.340300e+02,0.000000e+00
1.456008e+02,0.000000e+00
1.571716e+02,0.000000e+00
1.687424e+02,0.000000e+00
1.803132e+02,0.000000e+00
1.918840e+02,0.000000e+00
2.034548e+02,9.826104e+02
2.150256e+02,9.733256e+02
2.265964e+02,9.789692e+02
2.381673e+02,9.894101e+02
2.497381e+02,9.880078e+02
2.613088e+02,9.908504e+02
2.728796e+02,9.932501e+02
2.844504e+02,9.956300e+02
2.960212e+02,1.002506e+03
3.075920e+02,1.011164e+03
3.191628e+02,1.016872e+03
3.307336e+02,1.007542e+03
3.423044e+02,1.018067e+03
3.538752e+02,1.005824e+03
3.654461e+02,1.007133e+03
3.770169e+02,1.014334e+03
3.885877e+02,1.001466e+03
4.001585e+02,1.000372e+03
4.117293e+02,9.923547e+02
4.233001e+02,1.001846e+03
4.348709e+02,1.005058e+03
4.464417e+02,1.000547e+03
4.580125e+02,1.003214e+03
4.695833e+02,9.838949e+02
4.811541e+02,9.896417e+02
4.927249e+02,9.880605e+02
5.042957e+02,9.769480e+02
5.158665e+02,9.786052e+02
5.274373e+02,9.647449e+02
5.390081e+02,9.638435e+02
5.505789e+02,9.641435e+02
5.621497e+02,9.652199e+02
5.737205e+02,9.603039e+02
5.852913e+02,9.499869e+02
5.968621e+02,9.402766e+02
6.084329e+02,9.457966e+02
6.200037e+02,9.440279e+02
6.315745e+02,9.403506e+02
6.431453e+02,9.261766e+02
6.547161e+02,9.247922e+02
6.662869e+02,9.196761e+02
6.778577e+02,9.116058e+02
6.894285e+02,9.116566e+02
7.009993e+02,9.122875e+02
7.125701e+02,8.984969e+02
7.241409e+02,8.917483e+02
7.357117e+02,8.919313e+02
7.472825e+02,8.811746e+02
7.588533e+02,8.802227e+02
7.704241e+02,8.771270e+02
7.819949e+02,8.536877e+02
7.935657e+02,8.594427e+02
8.051365e+02,8.564085e+02
8.167073e+02,8.544774e+02
8.282781e+02,8.413830e+02
8.398489e+02,8.488574e+02
8.514197e+02,8.350940e+02
8.629905e+02,8.386412e+02
8.745613e+02,8.375810e+02
8.861321e+02,8.390410e+02
8.977029e+02,8.269445e+02
9.092737e+02,8.115355e+02
9.208445e+02,8.035579e+02
9.324153e+02,7.949964e+02
9.439861e+02,7.893870e+02
9.555569e+02,7.891148e+02
9.671277e+02,7.977155e+02
9.786985e+02,7.805746e+02
9.902693e+02,7.750634e+02
1.001840e+03,7.699459e+02
1.013411e+03,7.668067e+02
1.024982e+03,7.740976e+02
1.036552e+03,7.685007e+02
1.048123e+03,7.688910e+02
1.059694e+03,7.597253e+02
1.071265e+03,7.507692e+02
1.082836e+03,7.558145e+02
1.094406e+03,7.600303e+02
1.105977e+03,7.422904e+02
1.117548e+03,7.513223e+02
1.129119e+03,7.353494e+02
1.140690e+03,7.253448e+02
1.152261e+03,7.322189e+02
1.163831e+03,7.310008e+02
1.175402e+03,6.997188e+02
1.186973e+03,7.083474e+02
1.198544e+03,7.045469e+02
1.210115e+03,6.966715e+02
1.221685e+03,6.863878e+02
1.233256e+03,6.836748e+02
1.244827e+03,6.865085e+02
1.256398e+03,6.793992e+02
1.267969e+03,6.738276e+02
1.279539e+03,6.912719e+02
1.291110e+03,7.099377e+02
1.302681e+03,7.028020e+02
1.314252e+03,7.344928e+02
1.325823e+03,7.243904e+02
1.337393e+03,6.965475e+02
1.348964e+03,6.930129e+02
1.360535e+03,6.885469e+02
1.372106e+03,6.703977e+02
1.383677e+03,6.567553e+02
1.395247e+03,6.454642e+02
1.406818e+03,6.318237e+02
1.418389e+03,6.307019e+02
1.429960e+03,6.315247e+02
1.441531e+03,6.338994e+02
1.453101e+03,6.258105e+02
1.464672e+03,6.237670e+02
1.476243e+03,6.263519e+02
1.487814e+03,6.096988e+02
1.499385e+03,6.056435e+02
1.510955e+03,6.012666e+02
1.522526e+03,6.001664e+02
1.534097e+03,5.831536e+02
1.545668e+03,5.853842e+02
1.557239e+03,5.797199e+02
1.568809e+03,5.734512e+02
1.580380e+03,5.758527e+02
1.591951e+03,5.739134e+02
1.603522e+03,5.683591e+02
1.615093e+03,5.678966e+02
1.626663e+03,5.569960e+02
1.638234e+03,5.589778e+02
1.649805e+03,5.574408e+02
1.661376e+03,5.575516e+02
1.672947e+03,5.347540e+02
1.684517e+03,5.374944e+02
1.696088e+03,5.196224e+02
1.707659e+03,5.222413e+02
1.719230e+03,5.152245e+02
1.730801e+03,5.208300e+02
1.742371e+03,5.151075e+02
1.753942e+03,5.069082e+02
1.765513e+03,5.065193e+02
1.777084e+03,4.975480e+02
1.788655e+03,5.013014e+02
1.800225e+03,4.963377e+02
1.811796e+03,4.845706e+02
1.823367e+03,4.825455e+02
1.834938e+03,4.680539e+02
1.846509e+03,4.657371e+02
1.858079e+03,4.639262e+02
1.869650e+03,4.440634e+02
1.881221e+03,4.475880e+02
1.892792e+03,4.537870e+02
1.904363e+03,4.455080e+02
1.915933e+03,4.384928e+02
1.927504e+03,4.379122e+02
1.939075e+03,4.455045e+02
1.950646e+03,4.324698e+02
1.962217e+03,4.404632e+02
1.973787e+03,4.237569e+02
1.985358e+03,4.191573e+02
1.996929e+03,4.090006e+02
2.008500e+03,4.063942e+02
2.020071e+03,4.011374e+02
2.031641e+03,4.000407e+02
2.043212e+03,3.881804e+02
2.054783e+03,3.857220e+02
2.066354e+03,3.913663e+02
2.077925e+03,3.755667e+02
2.089496e+03,3.766107e+02
2.101066e+03,3.766836e+02
2.112637e+03,3.702432e+02
2.124208e+03,3.661464e+02
2.135779e+03,3.534026e+02
2.147350e+03,3.472924e+02
2.158920e+03,3.437967e+02
2.170491e+03,3.439431e+02
2.182062e+03,3.477312e+02
2.193633e+03,3.358403e+02
2.205204e+03,3.369958e+02
2.216774e+03,3.328174e+02
2.228345e+03,3.218839e+02
2.239916e+03,3.212247e+02
2.251487e+03,3.184710e+02
2.263058e+03,3.190004e+02
2.274628e+03,3.151302e+02
2.286199e+03,3.148376e+02
2.297770e+03,3.103951e+02
2.309341e+03,3.013835e+02
2.320912e+03,2.998923e+02
2.332482e+03,2.914704e+02
2.344053e+03,2.894526e+02
2.355624e+03,2.914582e+02
2.367195e+03,2.874009e+02
2.378766e+03,2.887777e+02
2.390336e+03,2.801471e+02
2.401907e+03,2.763017e+02
2.413478e+03,2.699289e+02
2.425049e+03,2.681935e+02
2.436620e+03,2.628885e+02
2.448190e+03,2.674154e+02
2.459761e+03,2.595683e+02
2.471332e+03,2.601325e+02
2.482903e+03,2.524995e+02
2.494474e+03,2.587752e+02
2.506044e+03,2.578204e+02
2.517615e+03,2.496462e+02
2.529186e+03,2.518132e+02
2.540757e+03,2.428580e+02
2.552328e+03,2.601410e+02
2.563898e+03,2.499407e+02
2.575469e+03,2.547437e+02
2.587040e+03,2.377981e+02
2.598611e+03,2.342607e+02
2.610182e+03,2.394108e+02
2.621752e+03,2.391245e+02
2.633323e+03,2.397023e+02
2.644894e+03,2.318732e+02
2.656465e+03,2.408741e+02
2.668036e+03,2.293853e+02
2.679606e+03,2.384338e+02
2.691177e+03,2.273305e+02
2.702748e+03,2.330370e+02
2.714319e+03,2.204802e+02
2.725890e+03,2.298420e+02
2.737460e+03,2.149198e+02
2.749031e+03,2.228941e+02
2.760602e+03,2.282715e+02
2.772173e+03,2.201502e+02
2.783744e+03,2.098363e+02
2.795314e+03,2.127102e+02
2.806885e+03,2.238573e+02
2.818456e+03,2.193115e+02
2.830027e+03,2.182154e+02
2.841598e+03,2.179329e+02
2.853168e+03,2.271135e+02
2.864739e+03,2.288926e+02
2.876310e+03,2.554470e+02
2.887881e+03,2.618550e+02
2.899452e+03,2.537477e+02
2.911022e+03,2.463569e+02
2.922593e+03,2.370417e+02
2.934164e+03,2.260486e+02
2.945735e+03,2.394106e+02
2.957306e+03,2.837840e+02
2.968876e+03,2.161969e+02
2.980447e+03,2.105119e+02
2.992018e+03,2.090495e+02
3.003589e+03,2.096535e+02
3.015160e+03,2.147459e+02
3.026730e+03,1.923207e+02
3.038301e+03,2.089454e+02
3.049872e+03,2.210005e+02
3.061443e+03,1.957937e+02
3.073014e+03,2.128250e+02
3.084584e+03,2.005260e+02
3.096155e+03,2.057257e+02
3.107726e+03,1.927658e+02
3.119297e+03,2.322745e+02
3.130868e+03,2.281772e+02
3.142438e+03,2.143829e+02
3.154009e+03,2.072793e+02
3.165580e+03,2.552130e+02
3.177151e+03,2.373418e+02
3.188722e+03,2.224078e+02
3.200292e+03,2.620583e+02
3.211863e+03,0.000000e+00
3.223434e+03,0.000000e+00
3.235005e+03,0.000000e+00
3.246576e+03,0.000000e+00
3.258146e+03,0.000000e+00
3.269717e+03,0.000000e+00
3.281288e+03,0.000000e+00
3.292859e+03,0.000000e+00
3.304430e+03,0.000000e+00
3.316000e+03,0.000000e+00
3.327571e+03,0.000000e+00
3.339142e+03,0.000000e+00
3.350713e+03,0.000000e+00
3.362284e+03,0.000000e+00
3.373854e+03,0.000000e+00
3.385425e+03,0.000000e+00
3.396996e+03,0.000000e+00
3.408567e+03,0.000000e+00
3.420138e+03,0.000000e+00
3.431708e+03,0.000000e+00
3.443279e+03,0.000000e+00
3.454850e+03,0.000000e+00
3.466421e+03,0.000000e+00
3.477992e+03,0.000000e+00
3.489563e+03,0.000000e+00
3.500169e+03,0.000000e+00