File: RAMAN_data/23052023_r1/blue fibre1.CSV
9.931763e+01,0.000000e+00
1.108884e+02,0.000000e+00
1.224592e+02,0.000000e+00
1.340300e+02,0.000000e+00
1.456008e+02,0.000000e+00
1.571716e+02,0.000000e+00
1.687424e+02,0.000000e+00
1.803132e+02,0.000000e+00
1.918840e+02,0.000000e+00
2.034548e+02,5.211300e+03
2.150256e+02,5.238067e+03
2.265964e+02,5.312978e+03
2.381673e+02,5.417618e+03
2.497381e+02,5.529904e+03
2.613088e+02,5.567325e+03
2.728796e+02,5.694952e+03
2.844504e+02,5.731216e+03
2.960212e+02,5.676900e+03
3.075920e+02,5.712298e+03
3.191628e+02,5.755683e+03
3.307336e+02,5.796044e+03
3.423044e+02,5.842517e+03
3.538752e+02,5.854200e+03
3.654461e+02,5.878452e+03
3.770169e+02,5.946144e+03
3.885877e+02,5.946602e+03
4.001585e+02,5.936114e+03
4.117293e+02,5.978854e+03
4.233001e+02,5.986464e+03
4.348709e+02,5.992981e+03
4.464417e+02,6.008021e+03
4.580125e+02,6.020063e+03
4.695833e+02,6.035815e+03
4.811541e+02,6.053705e+03
4.927249e+02,6.037542e+03
5.042957e+02,6.064260e+03
5.158665e+02,6.096575e+03
5.274373e+02,6.097822e+03
5.390081e+02,6.233824e+03
5.505789e+02,6.248142e+03
5.621497e+02,6.207360e+03
5.737205e+02,6.054415e+03
5.852913e+02,6.074850e+03
5.968621e+02,6.095231e+03
6.084329e+02,6.164510e+03
6.200037e+02,6.021768e+03
6.315745e+02,5.999491e+03
6.431453e+02,5.946851e+03
6.547161e+02,5.933049e+03
6.662869e+02,5.892335e+03
6.778577e+02,5.867834e+03
6.894285e+02,5.797625e+03
7.009993e+02,5.805358e+03
7.125701e+02,5.774827e+03
7.241409e+02,5.727561e+03
7.357117e+02,5.686351e+03
7.472825e+02,5.694537e+03
7.588533e+02,5.659504e+03
7.704241e+02,5.617287e+03
7.819949e+02,5.619608e+03
7.935657e+02,5.552048e+03
8.051365e+02,5.480000e+03
8.167073e+02,5.438991e+03
8.282781e+02,5.417018e+03
8.398489e+02,5.376902e+03
8.514197e+02,5.323294e+03
8.629905e+02,5.300536e+03
8.745613e+02,5.268876e+03
8.861321e+02,5.226133e+03
8.977029e+02,5.183198e+03
9.092737e+02,5.105175e+03
9.208445e+02,5.053872e+03
9.324153e+02,5.014772e+03
9.439861e+02,4.992081e+03
9.555569e+02,4.920688e+03
9.671277e+02,4.901922e+03
9.786985e+02,4.825925e+03
9.902693e+02,4.796209e+03
1.001840e+03,4.738047e+03
1.013411e+03,4.724869e+03
1.024982e+03,4.667045e+03
1.036552e+03,4.621303e+03
1.048123e+03,4.583021e+03
1.059694e+03,4.521718e+03
1.071265e+03,4.556913e+03
1.082836e+03,4.536973e+03
1.094406e+03,4.440974e+03
1.105977e+03,4.401088e+03
1.117548e+03,4.363511e+03
1.129119e+03,4.286019e+03
1.140690e+03,4.269092e+03
1.152261e+03,4.239702e+03
1.163831e+03,4.196726e+03
1.175402e+03,4.146957e+03
1.186973e+03,4.111211e+03
1.198544e+03,4.075338e+03
1.210115e+03,4.028151e+03
1.221685e+03,4.023149e+03
1.233256e+03,3.967805e+03
1.244827e+03,3.929640e+03
1.256398e+03,3.864555e+03
1.267969e+03,3.807762e+03
1.279539e+03,3.782478e+03
1.291110e+03,3.771785e+03
1.302681e+03,3.740539e+03
1.314252e+03,3.721375e+03
1.325823e+03,3.697934e+03
1.337393e+03,3.657351e+03
1.348964e+03,3.629367e+03
1.360535e+03,3.602934e+03
1.372106e+03,3.549677e+03
1.383677e+03,3.527216e+03
1.395247e+03,3.489247e+03
1.406818e+03,3.464944e+03
1.418389e+03,3.410228e+03
1.429960e+03,3.399796e+03
1.441531e+03,3.382909e+03
1.453101e+03,3.386990e+03
1.464672e+03,3.351356e+03
1.476243e+03,3.313441e+03
1.487814e+03,3.277168e+03
1.499385e+03,3.253027e+03
1.510955e+03,3.241181e+03
1.522526e+03,3.204954e+03
1.534097e+03,3.168956e+03
1.545668e+03,3.140025e+03
1.557239e+03,3.167190e+03
1.568809e+03,3.423539e+03
1.580380e+03,3.246790e+03
1.591951e+03,3.088594e+03
1.603522e+03,3.038342e+03
1.615093e+03,3.008626e+03
1.626663e+03,3.015580e+03
1.638234e+03,2.951873e+03
1.649805e+03,2.914655e+03
1.661376e+03,2.883726e+03
1.672947e+03,2.899813e+03
1.684517e+03,2.855355e+03
1.696088e+03,2.807846e+03
1.707659e+03,2.788474e+03
1.719230e+03,2.758648e+03
1.730801e+03,2.743852e+03
1.742371e+03,2.706501e+03
1.753942e+03,2.673119e+03
1.765513e+03,2.658648e+03
1.777084e+03,2.626536e+03
1.788655e+03,2.628120e+03
1.800225e+03,2.615255e+03
1.811796e+03,2.572614e+03
1.823367e+03,2.542821e+03
1.834938e+03,2.508703e+03
1.846509e+03,2.509742e+03
1.858079e+03,2.490361e+03
1.869650e+03,2.449525e+03
1.881221e+03,2.418953e+03
1.892792e+03,2.395106e+03
1.904363e+03,2.365504e+03
1.915933e+03,2.331779e+03
1.927504e+03,2.345645e+03
1.939075e+03,2.311328e+03
1.950646e+03,2.271917e+03
1.962217e+03,2.267995e+03
1.973787e+03,2.244841e+03
1.985358e+03,2.203518e+03
1.996929e+03,2.180915e+03
2.008500e+03,2.137698e+03
2.020071e+03,2.151559e+03
2.031641e+03,2.099772e+03
2.043212e+03,2.096105e+03
2.054783e+03,2.055501e+03
2.066354e+03,2.030652e+03
2.077925e+03,1.994904e+03
2.089496e+03,1.983575e+03
2.101066e+03,1.967471e+03
2.112637e+03,1.926378e+03
2.124208e+03,1.903723e+03
2.135779e+03,1.901788e+03
2.147350e+03,1.865406e+03
2.158920e+03,1.839114e+03
2.170491e+03,1.843244e+03
2.182062e+03,1.773412e+03
2.193633e+03,1.772124e+03
2.205204e+03,1.765029e+03
2.216774e+03,1.750430e+03
2.228345e+03,1.701290e+03
2.239916e+03,1.693309e+03
2.251487e+03,1.669729e+03
2.263058e+03,1.650625e+03
2.274628e+03,1.608275e+03
2.286199e+03,1.602332e+03
2.297770e+03,1.592254e+03
2.309341e+03,1.560356e+03
2.320912e+03,1.540010e+03
2.332482e+03,1.507821e+03
2.344053e+03,1.507692e+03
2.355624e+03,1.468385e+03
2.367195e+03,1.444577e+03
2.378766e+03,1.430290e+03
2.390336e+03,1.416039e+03
2.401907e+03,1.401586e+03
2.413478e+03,1.354681e+03
2.425049e+03,1.348534e+03
2.436620e+03,1.339249e+03
2.448190e+03,1.306161e+03
2.459761e+03,1.300322e+03
2.471332e+03,1.286053e+03
2.482903e+03,1.277701e+03
2.494474e+03,1.238704e+03
2.506044e+03,1.241793e+03
2.517615e+03,1.235048e+03
2.529186e+03,1.210213e+03
2.540757e+03,1.192505e+03
2.552328e+03,1.173679e+03
2.563898e+03,1.176809e+03
2.575469e+03,1.149927e+03
2.587040e+03,1.127220e+03
2.598611e+03,1.115727e+03
2.610182e+03,1.115011e+03
2.621752e+03,1.078773e+03
2.633323e+03,1.085012e+03
2.644894e+03,1.069666e+03
2.656465e+03,1.072971e+03
2.668036e+03,1.063879e+03
2.679606e+03,1.050795e+03
2.691177e+03,1.026110e+03
2.702748e+03,1.012073e+03
2.714319e+03,1.000557e+03
2.725890e+03,9.803161e+02
2.737460e+03,9.793248e+02
2.749031e+03,9.725328e+02
2.760602e+03,9.726829e+02
2.772173e+03,9.560573e+02
2.783744e+03,9.274891e+02
2.795314e+03,9.418470e+02
2.806885e+03,9.324368e+02
2.818456e+03,9.138005e+02
2.830027e+03,9.013213e+02
2.841598e+03,8.943445e+02
2.853168e+03,8.991447e+02
2.864739e+03,8.938748e+02
2.876310e+03,8.739510e+02
2.887881e+03,8.552151e+02
2.899452e+03,8.682888e+02
2.911022e+03,8.835538e+02
2.922593e+03,8.538655e+02
2.934164e+03,8.478605e+02
2.945735e+03,8.327617e+02
2.957306e+03,8.477054e+02
2.968876e+03,7.983145e+02
2.980447e+03,7.995919e+02
2.992018e+03,7.978197e+02
3.003589e+03,7.635156e+02
3.015160e+03,8.176602e+02
3.026730e+03,7.936268e+02
3.038301e+03,7.856495e+02
3.049872e+03,7.573029e+02
3.061443e+03,7.830204e+02
3.073014e+03,7.568676e+02
3.084584e+03,7.428923e+02
3.096155e+03,7.578859e+02
3.107726e+03,7.282635e+02
3.119297e+03,7.927055e+02
3.130868e+03,7.900900e+02
3.142438e+03,7.903405e+02
3.154009e+03,7.493047e+02
3.165580e+03,7.785731e+02
3.177151e+03,7.847899e+02
3.188722e+03,7.839464e+02
3.200292e+03,8.166874e+02
3.211863e+03,0.000000e+00
3.223434e+03,0.000000e+00
3.235005e+03,0.000000e+00
3.246576e+03,0.000000e+00
3.258146e+03,0.000000e+00
3.269717e+03,0.000000e+00
3.281288e+03,0.000000e+00
3.292859e+03,0.000000e+00
3.304430e+03,0.000000e+00
3.316000e+03,0.000000e+00
3.327571e+03,0.000000e+00
3.339142e+03,0.000000e+00
3.350713e+03,0.000000e+00
3.362284e+03,0.000000e+00
3.373854e+03,0.000000e+00
3.385425e+03,0.000000e+00
3.396996e+03,0.000000e+00
3.408567e+03,0.000000e+00
3.420138e+03,0.000000e+00
3.431708e+03,0.000000e+00
3.443279e+03,0.000000e+00
3.454850e+03,0.000000e+00
3.466421e+03,0.000000e+00
3.477992e+03,0.000000e+00
3.489563e+03,0.000000e+00
3.500169e+03,0.000000e+00