File: RAMAN_data/06022023_r2/bhlack fibre.CSV
9.931763e+01,0.000000e+00
1.108884e+02,0.000000e+00
1.224592e+02,0.000000e+00
1.340300e+02,0.000000e+00
1.456008e+02,0.000000e+00
1.571716e+02,0.000000e+00
1.687424e+02,0.000000e+00
1.803132e+02,0.000000e+00
1.918840e+02,0.000000e+00
2.034548e+02,1.663877e+03
2.150256e+02,1.670123e+03
2.265964e+02,1.685191e+03
2.381673e+02,1.699074e+03
2.497381e+02,1.701495e+03
2.613088e+02,1.722005e+03
2.728796e+02,1.726308e+03
2.844504e+02,1.743518e+03
2.960212e+02,1.748445e+03
3.075920e+02,1.758941e+03
3.191628e+02,1.764613e+03
3.307336e+02,1.777058e+03
3.423044e+02,1.792589e+03
3.538752e+02,1.792555e+03
3.654461e+02,1.802544e+03
3.770169e+02,1.825740e+03
3.885877e+02,1.808796e+03
4.001585e+02,1.801989e+03
4.117293e+02,1.814527e+03
4.233001e+02,1.817003e+03
4.348709e+02,1.843852e+03
4.464417e+02,1.833526e+03
4.580125e+02,1.832968e+03
4.695833e+02,1.821202e+03
4.811541e+02,1.813995e+03
4.927249e+02,1.827105e+03
5.042957e+02,1.831462e+03
5.158665e+02,1.846051e+03
5.274373e+02,1.849194e+03
5.390081e+02,1.831635e+03
5.505789e+02,1.826001e+03
5.621497e+02,1.845521e+03
5.737205e+02,1.830699e+03
5.852913e+02,1.808299e+03
5.968621e+02,1.818603e+03
6.084329e+02,1.832879e+03
6.200037e+02,1.824681e+03
6.315745e+02,1.822288e+03
6.431453e+02,1.820980e+03
6.547161e+02,1.817403e+03
6.662869e+02,1.813242e+03
6.778577e+02,1.788707e+03
6.894285e+02,1.803880e+03
7.009993e+02,1.801370e+03
7.125701e+02,1.813574e+03
7.241409e+02,1.788028e+03
7.357117e+02,1.776342e+03
7.472825e+02,1.786869e+03
7.588533e+02,1.765803e+03
7.704241e+02,1.768244e+03
7.819949e+02,1.780656e+03
7.935657e+02,1.771222e+03
8.051365e+02,1.763668e+03
8.167073e+02,1.759435e+03
8.282781e+02,1.750238e+03
8.398489e+02,1.760739e+03
8.514197e+02,1.746925e+03
8.629905e+02,1.747019e+03
8.745613e+02,1.747202e+03
8.861321e+02,1.751013e+03
8.977029e+02,1.729647e+03
9.092737e+02,1.726716e+03
9.208445e+02,1.722462e+03
9.324153e+02,1.708198e+03
9.439861e+02,1.698774e+03
9.555569e+02,1.706556e+03
9.671277e+02,1.692878e+03
9.786985e+02,1.691370e+03
9.902693e+02,1.688563e+03
1.001840e+03,1.675023e+03
1.013411e+03,1.670808e+03
1.024982e+03,1.668101e+03
1.036552e+03,1.668078e+03
1.048123e+03,1.664221e+03
1.059694e+03,1.659616e+03
1.071265e+03,1.669193e+03
1.082836e+03,1.669000e+03
1.094406e+03,1.701832e+03
1.105977e+03,1.656370e+03
1.117548e+03,1.668291e+03
1.129119e+03,1.638314e+03
1.140690e+03,1.624892e+03
1.152261e+03,1.632406e+03
1.163831e+03,1.619701e+03
1.175402e+03,1.589453e+03
1.186973e+03,1.597633e+03
1.198544e+03,1.594681e+03
1.210115e+03,1.595665e+03
1.221685e+03,1.589493e+03
1.233256e+03,1.589940e+03
1.244827e+03,1.585249e+03
1.256398e+03,1.590060e+03
1.267969e+03,1.587134e+03
1.279539e+03,1.589962e+03
1.291110e+03,1.593852e+03
1.302681e+03,1.582117e+03
1.314252e+03,1.573038e+03
1.325823e+03,1.587708e+03
1.337393e+03,1.600380e+03
1.348964e+03,1.597303e+03
1.360535e+03,1.611255e+03
1.372106e+03,1.615217e+03
1.383677e+03,1.610552e+03
1.395247e+03,1.579135e+03
1.406818e+03,1.580418e+03
1.418389e+03,1.566397e+03
1.429960e+03,1.552058e+03
1.441531e+03,1.547224e+03
1.453101e+03,1.547464e+03
1.464672e+03,1.528621e+03
1.476243e+03,1.527265e+03
1.487814e+03,1.505906e+03
1.499385e+03,1.502655e+03
1.510955e+03,1.498881e+03
1.522526e+03,1.484129e+03
1.534097e+03,1.479902e+03
1.545668e+03,1.473851e+03
1.557239e+03,1.467820e+03
1.568809e+03,1.471626e+03
1.580380e+03,1.453443e+03
1.591951e+03,1.445167e+03
1.603522e+03,1.438939e+03
1.615093e+03,1.430122e+03
1.626663e+03,1.425301e+03
1.638234e+03,1.407464e+03
1.649805e+03,1.408271e+03
1.661376e+03,1.395953e+03
1.672947e+03,1.389566e+03
1.684517e+03,1.398086e+03
1.696088e+03,1.373813e+03
1.707659e+03,1.372694e+03
1.719230e+03,1.361777e+03
1.730801e+03,1.360910e+03
1.742371e+03,1.346860e+03
1.753942e+03,1.354712e+03
1.765513e+03,1.343941e+03
1.777084e+03,1.332644e+03
1.788655e+03,1.323167e+03
1.800225e+03,1.319143e+03
1.811796e+03,1.325358e+03
1.823367e+03,1.297797e+03
1.834938e+03,1.299852e+03
1.846509e+03,1.286783e+03
1.858079e+03,1.282811e+03
1.869650e+03,1.265900e+03
1.881221e+03,1.258427e+03
1.892792e+03,1.250076e+03
1.904363e+03,1.253038e+03
1.915933e+03,1.242815e+03
1.927504e+03,1.229629e+03
1.939075e+03,1.234184e+03
1.950646e+03,1.225631e+03
1.962217e+03,1.209386e+03
1.973787e+03,1.204649e+03
1.985358e+03,1.203199e+03
1.996929e+03,1.192020e+03
2.008500e+03,1.174276e+03
2.020071e+03,1.170211e+03
2.031641e+03,1.160685e+03
2.043212e+03,1.147927e+03
2.054783e+03,1.138163e+03
2.066354e+03,1.147733e+03
2.077925e+03,1.137518e+03
2.089496e+03,1.138533e+03
2.101066e+03,1.125790e+03
2.112637e+03,1.093680e+03
2.124208e+03,1.097158e+03
2.135779e+03,1.089183e+03
2.147350e+03,1.062001e+03
2.158920e+03,1.066306e+03
2.170491e+03,1.072971e+03
2.182062e+03,1.061881e+03
2.193633e+03,1.036485e+03
2.205204e+03,1.027559e+03
2.216774e+03,1.033261e+03
2.228345e+03,1.010800e+03
2.239916e+03,1.003717e+03
2.251487e+03,9.974915e+02
2.263058e+03,9.973307e+02
2.274628e+03,9.781224e+02
2.286199e+03,9.755782e+02
2.297770e+03,9.760560e+02
2.309341e+03,9.623594e+02
2.320912e+03,9.498175e+02
2.332482e+03,9.434647e+02
2.344053e+03,9.392389e+02
2.355624e+03,9.181758e+02
2.367195e+03,9.054580e+02
2.378766e+03,9.143102e+02
2.390336e+03,9.155081e+02
2.401907e+03,8.970258e+02
2.413478e+03,8.796195e+02
2.425049e+03,8.735637e+02
2.436620e+03,8.798718e+02
2.448190e+03,8.746440e+02
2.459761e+03,8.634778e+02
2.471332e+03,8.613552e+02
2.482903e+03,8.681500e+02
2.494474e+03,8.481611e+02
2.506044e+03,8.380735e+02
2.517615e+03,8.373292e+02
2.529186e+03,8.174223e+02
2.540757e+03,8.181332e+02
2.552328e+03,8.255425e+02
2.563898e+03,8.171024e+02
2.575469e+03,8.118625e+02
2.587040e+03,7.973473e+02
2.598611e+03,7.851035e+02
2.610182e+03,8.001732e+02
2.621752e+03,7.926893e+02
2.633323e+03,7.867268e+02
2.644894e+03,7.665240e+02
2.656465e+03,7.811019e+02
2.668036e+03,7.666763e+02
2.679606e+03,7.644860e+02
2.691177e+03,7.571053e+02
2.702748e+03,7.539885e+02
2.714319e+03,7.527418e+02
2.725890e+03,7.502405e+02
2.737460e+03,7.521968e+02
2.749031e+03,7.319579e+02
2.760602e+03,7.278275e+02
2.772173e+03,7.278695e+02
2.783744e+03,7.360207e+02
2.795314e+03,7.260901e+02
2.806885e+03,7.300012e+02
2.818456e+03,7.076823e+02
2.830027e+03,7.189154e+02
2.841598e+03,7.083414e+02
2.853168e+03,7.201505e+02
2.864739e+03,7.187165e+02
2.876310e+03,7.208326e+02
2.887881e+03,7.334166e+02
2.899452e+03,7.207075e+02
2.911022e+03,7.336768e+02
2.922593e+03,6.914869e+02
2.934164e+03,6.944024e+02
2.945735e+03,7.223514e+02
2.957306e+03,7.113454e+02
2.968876e+03,6.863201e+02
2.980447e+03,6.550480e+02
2.992018e+03,6.521078e+02
3.003589e+03,6.370090e+02
3.015160e+03,6.244205e+02
3.026730e+03,6.351817e+02
3.038301e+03,6.362302e+02
3.049872e+03,6.235828e+02
3.061443e+03,6.411005e+02
3.073014e+03,6.164404e+02
3.084584e+03,6.312921e+02
3.096155e+03,6.333232e+02
3.107726e+03,6.039340e+02
3.119297e+03,5.925061e+02
3.130868e+03,6.363887e+02
3.142438e+03,6.229564e+02
3.154009e+03,6.300869e+02
3.165580e+03,6.028542e+02
3.177151e+03,5.852701e+02
3.188722e+03,6.317745e+02
3.200292e+03,6.087726e+02
3.211863e+03,0.000000e+00
3.223434e+03,0.000000e+00
3.235005e+03,0.000000e+00
3.246576e+03,0.000000e+00
3.258146e+03,0.000000e+00
3.269717e+03,0.000000e+00
3.281288e+03,0.000000e+00
3.292859e+03,0.000000e+00
3.304430e+03,0.000000e+00
3.316000e+03,0.000000e+00
3.327571e+03,0.000000e+00
3.339142e+03,0.000000e+00
3.350713e+03,0.000000e+00
3.362284e+03,0.000000e+00
3.373854e+03,0.000000e+00
3.385425e+03,0.000000e+00
3.396996e+03,0.000000e+00
3.408567e+03,0.000000e+00
3.420138e+03,0.000000e+00
3.431708e+03,0.000000e+00
3.443279e+03,0.000000e+00
3.454850e+03,0.000000e+00
3.466421e+03,0.000000e+00
3.477992e+03,0.000000e+00
3.489563e+03,0.000000e+00
3.500169e+03,0.000000e+00