File: RAMAN_data/06022023_r2/black fibre3.CSV
9.931763e+01,0.000000e+00
1.108884e+02,0.000000e+00
1.224592e+02,0.000000e+00
1.340300e+02,0.000000e+00
1.456008e+02,0.000000e+00
1.571716e+02,0.000000e+00
1.687424e+02,0.000000e+00
1.803132e+02,0.000000e+00
1.918840e+02,0.000000e+00
2.034548e+02,2.872941e+03
2.150256e+02,2.874555e+03
2.265964e+02,2.903710e+03
2.381673e+02,2.923238e+03
2.497381e+02,2.927409e+03
2.613088e+02,2.942935e+03
2.728796e+02,2.947629e+03
2.844504e+02,2.969290e+03
2.960212e+02,2.976238e+03
3.075920e+02,2.984936e+03
3.191628e+02,3.002677e+03
3.307336e+02,3.003634e+03
3.423044e+02,3.023929e+03
3.538752e+02,3.008494e+03
3.654461e+02,3.016258e+03
3.770169e+02,3.039415e+03
3.885877e+02,3.019622e+03
4.001585e+02,3.027094e+03
4.117293e+02,3.015457e+03
4.233001e+02,3.026810e+03
4.348709e+02,3.033465e+03
4.464417e+02,3.013310e+03
4.580125e+02,3.035431e+03
4.695833e+02,3.025240e+03
4.811541e+02,3.047061e+03
4.927249e+02,3.080135e+03
5.042957e+02,3.013770e+03
5.158665e+02,3.037074e+03
5.274373e+02,3.008095e+03
5.390081e+02,3.008588e+03
5.505789e+02,2.982278e+03
5.621497e+02,2.995819e+03
5.737205e+02,2.986285e+03
5.852913e+02,2.977503e+03
5.968621e+02,2.983246e+03
6.084329e+02,2.967777e+03
6.200037e+02,2.954643e+03
6.315745e+02,2.950823e+03
6.431453e+02,2.936045e+03
6.547161e+02,2.945840e+03
6.662869e+02,2.909399e+03
6.778577e+02,2.910225e+03
6.894285e+02,2.862864e+03
7.009993e+02,2.890289e+03
7.125701e+02,2.865909e+03
7.241409e+02,2.859174e+03
7.357117e+02,2.834752e+03
7.472825e+02,2.837066e+03
7.588533e+02,2.816622e+03
7.704241e+02,2.796544e+03
7.819949e+02,2.788929e+03
7.935657e+02,2.796254e+03
8.051365e+02,2.759150e+03
8.167073e+02,2.744740e+03
8.282781e+02,2.734257e+03
8.398489e+02,2.733581e+03
8.514197e+02,2.717572e+03
8.629905e+02,2.708241e+03
8.745613e+02,2.704786e+03
8.861321e+02,2.671768e+03
8.977029e+02,2.661800e+03
9.092737e+02,2.648806e+03
9.208445e+02,2.628145e+03
9.324153e+02,2.613124e+03
9.439861e+02,2.581396e+03
9.555569e+02,2.556139e+03
9.671277e+02,2.550339e+03
9.786985e+02,2.548065e+03
9.902693e+02,2.515573e+03
1.001840e+03,2.500414e+03
1.013411e+03,2.500564e+03
1.024982e+03,2.476582e+03
1.036552e+03,2.483740e+03
1.048123e+03,2.455773e+03
1.059694e+03,2.455569e+03
1.071265e+03,2.452237e+03
1.082836e+03,2.434851e+03
1.094406e+03,2.448375e+03
1.105977e+03,2.413067e+03
1.117548e+03,2.424323e+03
1.129119e+03,2.422730e+03
1.140690e+03,2.411185e+03
1.152261e+03,2.407520e+03
1.163831e+03,2.354122e+03
1.175402e+03,2.345429e+03
1.186973e+03,2.343506e+03
1.198544e+03,2.317264e+03
1.210115e+03,2.303201e+03
1.221685e+03,2.287835e+03
1.233256e+03,2.258245e+03
1.244827e+03,2.240345e+03
1.256398e+03,2.232017e+03
1.267969e+03,2.236444e+03
1.279539e+03,2.261363e+03
1.291110e+03,2.239392e+03
1.302681e+03,2.193673e+03
1.314252e+03,2.183523e+03
1.325823e+03,2.174130e+03
1.337393e+03,2.199173e+03
1.348964e+03,2.155424e+03
1.360535e+03,2.149898e+03
1.372106e+03,2.131009e+03
1.383677e+03,2.118426e+03
1.395247e+03,2.066109e+03
1.406818e+03,2.075020e+03
1.418389e+03,2.061751e+03
1.429960e+03,2.050275e+03
1.441531e+03,2.021332e+03
1.453101e+03,2.001627e+03
1.464672e+03,1.993003e+03
1.476243e+03,1.983198e+03
1.487814e+03,1.973641e+03
1.499385e+03,1.961312e+03
1.510955e+03,1.942350e+03
1.522526e+03,1.923862e+03
1.534097e+03,1.908888e+03
1.545668e+03,1.893791e+03
1.557239e+03,1.894430e+03
1.568809e+03,1.908122e+03
1.580380e+03,1.895650e+03
1.591951e+03,1.881745e+03
1.603522e+03,1.843088e+03
1.615093e+03,1.834138e+03
1.626663e+03,1.811794e+03
1.638234e+03,1.787307e+03
1.649805e+03,1.775609e+03
1.661376e+03,1.757214e+03
1.672947e+03,1.740078e+03
1.684517e+03,1.723178e+03
1.696088e+03,1.722307e+03
1.707659e+03,1.691108e+03
1.719230e+03,1.703683e+03
1.730801e+03,1.676343e+03
1.742371e+03,1.661093e+03
1.753942e+03,1.655110e+03
1.765513e+03,1.651188e+03
1.777084e+03,1.627974e+03
1.788655e+03,1.607464e+03
1.800225e+03,1.595844e+03
1.811796e+03,1.573288e+03
1.823367e+03,1.572223e+03
1.834938e+03,1.558962e+03
1.846509e+03,1.543471e+03
1.858079e+03,1.514964e+03
1.869650e+03,1.516538e+03
1.881221e+03,1.491923e+03
1.892792e+03,1.482082e+03
1.904363e+03,1.470282e+03
1.915933e+03,1.451159e+03
1.927504e+03,1.449034e+03
1.939075e+03,1.433280e+03
1.950646e+03,1.421566e+03
1.962217e+03,1.394838e+03
1.973787e+03,1.379308e+03
1.985358e+03,1.373569e+03
1.996929e+03,1.357707e+03
2.008500e+03,1.333830e+03
2.020071e+03,1.330205e+03
2.031641e+03,1.317310e+03
2.043212e+03,1.280929e+03
2.054783e+03,1.271372e+03
2.066354e+03,1.255502e+03
2.077925e+03,1.254867e+03
2.089496e+03,1.236820e+03
2.101066e+03,1.225483e+03
2.112637e+03,1.205189e+03
2.124208e+03,1.203713e+03
2.135779e+03,1.172035e+03
2.147350e+03,1.158691e+03
2.158920e+03,1.145031e+03
2.170491e+03,1.145287e+03
2.182062e+03,1.135323e+03
2.193633e+03,1.131367e+03
2.205204e+03,1.110477e+03
2.216774e+03,1.096185e+03
2.228345e+03,1.066309e+03
2.239916e+03,1.048320e+03
2.251487e+03,1.039093e+03
2.263058e+03,1.042634e+03
2.274628e+03,1.010833e+03
2.286199e+03,1.006872e+03
2.297770e+03,1.014097e+03
2.309341e+03,9.879017e+02
2.320912e+03,9.765912e+02
2.332482e+03,9.688046e+02
2.344053e+03,9.746113e+02
2.355624e+03,9.442614e+02
2.367195e+03,9.225319e+02
2.378766e+03,9.333930e+02
2.390336e+03,9.187252e+02
2.401907e+03,9.083195e+02
2.413478e+03,8.950280e+02
2.425049e+03,8.825577e+02
2.436620e+03,8.693294e+02
2.448190e+03,8.650438e+02
2.459761e+03,8.556025e+02
2.471332e+03,8.430186e+02
2.482903e+03,8.318974e+02
2.494474e+03,8.313305e+02
2.506044e+03,8.192882e+02
2.517615e+03,8.120159e+02
2.529186e+03,7.815405e+02
2.540757e+03,8.030204e+02
2.552328e+03,8.014423e+02
2.563898e+03,7.766508e+02
2.575469e+03,7.744178e+02
2.587040e+03,7.567780e+02
2.598611e+03,7.505992e+02
2.610182e+03,7.426037e+02
2.621752e+03,7.271315e+02
2.633323e+03,7.333285e+02
2.644894e+03,7.193810e+02
2.656465e+03,7.166516e+02
2.668036e+03,7.099587e+02
2.679606e+03,6.979403e+02
2.691177e+03,6.822220e+02
2.702748e+03,6.906959e+02
2.714319e+03,6.807714e+02
2.725890e+03,6.685861e+02
2.737460e+03,6.655399e+02
2.749031e+03,6.563947e+02
2.760602e+03,6.631386e+02
2.772173e+03,6.508556e+02
2.783744e+03,6.579280e+02
2.795314e+03,6.332078e+02
2.806885e+03,6.330241e+02
2.818456e+03,6.062548e+02
2.830027e+03,6.269905e+02
2.841598e+03,6.330623e+02
2.853168e+03,6.373223e+02
2.864739e+03,6.375336e+02
2.876310e+03,6.426631e+02
2.887881e+03,6.254452e+02
2.899452e+03,6.289874e+02
2.911022e+03,6.170290e+02
2.922593e+03,6.133220e+02
2.934164e+03,5.985732e+02
2.945735e+03,5.899643e+02
2.957306e+03,6.015151e+02
2.968876e+03,5.790126e+02
2.980447e+03,5.431839e+02
2.992018e+03,5.624661e+02
3.003589e+03,5.423953e+02
3.015160e+03,5.388071e+02
3.026730e+03,5.324453e+02
3.038301e+03,5.482764e+02
3.049872e+03,5.420981e+02
3.061443e+03,5.336954e+02
3.073014e+03,5.370768e+02
3.084584e+03,5.216042e+02
3.096155e+03,5.396076e+02
3.107726e+03,5.327832e+02
3.119297e+03,5.101772e+02
3.130868e+03,5.458147e+02
3.142438e+03,5.017021e+02
3.154009e+03,5.628727e+02
3.165580e+03,5.143639e+02
3.177151e+03,5.152082e+02
3.188722e+03,4.957577e+02
3.200292e+03,5.313133e+02
3.211863e+03,0.000000e+00
3.223434e+03,0.000000e+00
3.235005e+03,0.000000e+00
3.246576e+03,0.000000e+00
3.258146e+03,0.000000e+00
3.269717e+03,0.000000e+00
3.281288e+03,0.000000e+00
3.292859e+03,0.000000e+00
3.304430e+03,0.000000e+00
3.316000e+03,0.000000e+00
3.327571e+03,0.000000e+00
3.339142e+03,0.000000e+00
3.350713e+03,0.000000e+00
3.362284e+03,0.000000e+00
3.373854e+03,0.000000e+00
3.385425e+03,0.000000e+00
3.396996e+03,0.000000e+00
3.408567e+03,0.000000e+00
3.420138e+03,0.000000e+00
3.431708e+03,0.000000e+00
3.443279e+03,0.000000e+00
3.454850e+03,0.000000e+00
3.466421e+03,0.000000e+00
3.477992e+03,0.000000e+00
3.489563e+03,0.000000e+00
3.500169e+03,0.000000e+00