File: RAMAN_data/06022023_r2/black fibre7.CSV
9.931763e+01,0.000000e+00
1.108884e+02,0.000000e+00
1.224592e+02,0.000000e+00
1.340300e+02,0.000000e+00
1.456008e+02,0.000000e+00
1.571716e+02,0.000000e+00
1.687424e+02,0.000000e+00
1.803132e+02,0.000000e+00
1.918840e+02,0.000000e+00
2.034548e+02,3.387028e+03
2.150256e+02,3.396789e+03
2.265964e+02,3.396284e+03
2.381673e+02,3.446529e+03
2.497381e+02,3.475593e+03
2.613088e+02,3.484233e+03
2.728796e+02,3.500662e+03
2.844504e+02,3.523020e+03
2.960212e+02,3.536569e+03
3.075920e+02,3.536069e+03
3.191628e+02,3.560218e+03
3.307336e+02,3.581186e+03
3.423044e+02,3.591109e+03
3.538752e+02,3.604301e+03
3.654461e+02,3.601280e+03
3.770169e+02,3.642219e+03
3.885877e+02,3.628330e+03
4.001585e+02,3.643091e+03
4.117293e+02,3.623509e+03
4.233001e+02,3.639970e+03
4.348709e+02,3.650449e+03
4.464417e+02,3.618823e+03
4.580125e+02,3.635289e+03
4.695833e+02,3.612664e+03
4.811541e+02,3.666380e+03
4.927249e+02,3.701037e+03
5.042957e+02,3.627172e+03
5.158665e+02,3.629460e+03
5.274373e+02,3.602147e+03
5.390081e+02,3.608961e+03
5.505789e+02,3.603755e+03
5.621497e+02,3.582406e+03
5.737205e+02,3.572366e+03
5.852913e+02,3.554348e+03
5.968621e+02,3.576824e+03
6.084329e+02,3.570747e+03
6.200037e+02,3.552108e+03
6.315745e+02,3.542408e+03
6.431453e+02,3.529242e+03
6.547161e+02,3.513157e+03
6.662869e+02,3.502357e+03
6.778577e+02,3.465018e+03
6.894285e+02,3.463807e+03
7.009993e+02,3.470735e+03
7.125701e+02,3.442363e+03
7.241409e+02,3.447618e+03
7.357117e+02,3.419736e+03
7.472825e+02,3.388529e+03
7.588533e+02,3.379526e+03
7.704241e+02,3.361153e+03
7.819949e+02,3.348220e+03
7.935657e+02,3.338788e+03
8.051365e+02,3.316346e+03
8.167073e+02,3.287325e+03
8.282781e+02,3.284805e+03
8.398489e+02,3.272350e+03
8.514197e+02,3.262437e+03
8.629905e+02,3.236349e+03
8.745613e+02,3.222193e+03
8.861321e+02,3.202105e+03
8.977029e+02,3.184969e+03
9.092737e+02,3.187137e+03
9.208445e+02,3.138883e+03
9.324153e+02,3.127500e+03
9.439861e+02,3.107927e+03
9.555569e+02,3.079603e+03
9.671277e+02,3.052672e+03
9.786985e+02,3.066734e+03
9.902693e+02,3.023372e+03
1.001840e+03,3.019263e+03
1.013411e+03,3.010694e+03
1.024982e+03,2.996236e+03
1.036552e+03,2.981125e+03
1.048123e+03,2.946694e+03
1.059694e+03,2.949643e+03
1.071265e+03,2.953415e+03
1.082836e+03,2.951315e+03
1.094406e+03,2.948088e+03
1.105977e+03,2.918254e+03
1.117548e+03,2.947434e+03
1.129119e+03,2.964476e+03
1.140690e+03,2.926184e+03
1.152261e+03,2.978374e+03
1.163831e+03,2.881479e+03
1.175402e+03,2.861725e+03
1.186973e+03,2.848758e+03
1.198544e+03,2.838971e+03
1.210115e+03,2.834750e+03
1.221685e+03,2.802470e+03
1.233256e+03,2.772839e+03
1.244827e+03,2.760727e+03
1.256398e+03,2.737406e+03
1.267969e+03,2.743540e+03
1.279539e+03,2.777510e+03
1.291110e+03,2.773629e+03
1.302681e+03,2.717657e+03
1.314252e+03,2.683585e+03
1.325823e+03,2.676779e+03
1.337393e+03,2.716593e+03
1.348964e+03,2.703460e+03
1.360535e+03,2.663337e+03
1.372106e+03,2.636583e+03
1.383677e+03,2.629263e+03
1.395247e+03,2.559313e+03
1.406818e+03,2.552698e+03
1.418389e+03,2.557744e+03
1.429960e+03,2.540191e+03
1.441531e+03,2.503912e+03
1.453101e+03,2.487148e+03
1.464672e+03,2.474297e+03
1.476243e+03,2.471322e+03
1.487814e+03,2.455783e+03
1.499385e+03,2.439198e+03
1.510955e+03,2.421899e+03
1.522526e+03,2.401507e+03
1.534097e+03,2.403742e+03
1.545668e+03,2.390527e+03
1.557239e+03,2.390518e+03
1.568809e+03,2.409395e+03
1.580380e+03,2.410894e+03
1.591951e+03,2.393447e+03
1.603522e+03,2.319832e+03
1.615093e+03,2.321877e+03
1.626663e+03,2.276805e+03
1.638234e+03,2.266028e+03
1.649805e+03,2.246683e+03
1.661376e+03,2.236107e+03
1.672947e+03,2.210583e+03
1.684517e+03,2.204007e+03
1.696088e+03,2.186197e+03
1.707659e+03,2.168304e+03
1.719230e+03,2.152750e+03
1.730801e+03,2.141980e+03
1.742371e+03,2.113887e+03
1.753942e+03,2.083281e+03
1.765513e+03,2.084778e+03
1.777084e+03,2.057294e+03
1.788655e+03,2.059890e+03
1.800225e+03,2.023487e+03
1.811796e+03,2.021954e+03
1.823367e+03,1.998666e+03
1.834938e+03,1.998746e+03
1.846509e+03,1.970547e+03
1.858079e+03,1.944038e+03
1.869650e+03,1.913252e+03
1.881221e+03,1.919970e+03
1.892792e+03,1.901832e+03
1.904363e+03,1.868522e+03
1.915933e+03,1.859362e+03
1.927504e+03,1.845247e+03
1.939075e+03,1.816691e+03
1.950646e+03,1.810420e+03
1.962217e+03,1.762988e+03
1.973787e+03,1.760067e+03
1.985358e+03,1.743015e+03
1.996929e+03,1.742572e+03
2.008500e+03,1.728570e+03
2.020071e+03,1.700516e+03
2.031641e+03,1.684503e+03
2.043212e+03,1.656214e+03
2.054783e+03,1.650322e+03
2.066354e+03,1.620175e+03
2.077925e+03,1.621180e+03
2.089496e+03,1.597606e+03
2.101066e+03,1.557851e+03
2.112637e+03,1.553000e+03
2.124208e+03,1.557803e+03
2.135779e+03,1.529579e+03
2.147350e+03,1.503779e+03
2.158920e+03,1.482256e+03
2.170491e+03,1.469753e+03
2.182062e+03,1.441657e+03
2.193633e+03,1.427301e+03
2.205204e+03,1.411560e+03
2.216774e+03,1.415908e+03
2.228345e+03,1.366665e+03
2.239916e+03,1.377457e+03
2.251487e+03,1.349661e+03
2.263058e+03,1.342208e+03
2.274628e+03,1.319833e+03
2.286199e+03,1.307351e+03
2.297770e+03,1.286206e+03
2.309341e+03,1.287672e+03
2.320912e+03,1.263493e+03
2.332482e+03,1.261027e+03
2.344053e+03,1.235784e+03
2.355624e+03,1.217109e+03
2.367195e+03,1.198683e+03
2.378766e+03,1.183854e+03
2.390336e+03,1.184158e+03
2.401907e+03,1.168693e+03
2.413478e+03,1.148864e+03
2.425049e+03,1.118938e+03
2.436620e+03,1.121095e+03
2.448190e+03,1.104997e+03
2.459761e+03,1.078893e+03
2.471332e+03,1.095303e+03
2.482903e+03,1.076120e+03
2.494474e+03,1.058794e+03
2.506044e+03,1.038457e+03
2.517615e+03,1.038728e+03
2.529186e+03,1.027589e+03
2.540757e+03,1.019765e+03
2.552328e+03,1.006301e+03
2.563898e+03,9.978659e+02
2.575469e+03,9.893580e+02
2.587040e+03,9.705504e+02
2.598611e+03,9.674864e+02
2.610182e+03,9.521077e+02
2.621752e+03,9.597568e+02
2.633323e+03,9.319412e+02
2.644894e+03,9.337509e+02
2.656465e+03,9.300005e+02
2.668036e+03,9.113444e+02
2.679606e+03,9.052811e+02
2.691177e+03,8.925098e+02
2.702748e+03,8.820557e+02
2.714319e+03,8.839711e+02
2.725890e+03,8.645946e+02
2.737460e+03,8.594781e+02
2.749031e+03,8.445808e+02
2.760602e+03,8.514884e+02
2.772173e+03,8.452842e+02
2.783744e+03,8.454871e+02
2.795314e+03,8.064232e+02
2.806885e+03,7.910290e+02
2.818456e+03,8.094267e+02
2.830027e+03,8.177645e+02
2.841598e+03,8.004953e+02
2.853168e+03,8.077597e+02
2.864739e+03,8.119951e+02
2.876310e+03,7.856984e+02
2.887881e+03,8.037501e+02
2.899452e+03,8.109936e+02
2.911022e+03,8.068066e+02
2.922593e+03,7.852055e+02
2.934164e+03,7.885372e+02
2.945735e+03,7.511533e+02
2.957306e+03,7.724196e+02
2.968876e+03,7.405811e+02
2.980447e+03,7.307886e+02
2.992018e+03,7.142396e+02
3.003589e+03,7.006597e+02
3.015160e+03,6.966877e+02
3.026730e+03,7.012792e+02
3.038301e+03,7.097814e+02
3.049872e+03,7.038127e+02
3.061443e+03,7.074804e+02
3.073014e+03,6.694554e+02
3.084584e+03,6.770043e+02
3.096155e+03,6.708792e+02
3.107726e+03,6.840638e+02
3.119297e+03,6.554959e+02
3.130868e+03,6.504443e+02
3.142438e+03,6.658910e+02
3.154009e+03,6.856893e+02
3.165580e+03,6.958214e+02
3.177151e+03,6.546044e+02
3.188722e+03,6.966846e+02
3.200292e+03,7.027979e+02
3.211863e+03,0.000000e+00
3.223434e+03,0.000000e+00
3.235005e+03,0.000000e+00
3.246576e+03,0.000000e+00
3.258146e+03,0.000000e+00
3.269717e+03,0.000000e+00
3.281288e+03,0.000000e+00
3.292859e+03,0.000000e+00
3.304430e+03,0.000000e+00
3.316000e+03,0.000000e+00
3.327571e+03,0.000000e+00
3.339142e+03,0.000000e+00
3.350713e+03,0.000000e+00
3.362284e+03,0.000000e+00
3.373854e+03,0.000000e+00
3.385425e+03,0.000000e+00
3.396996e+03,0.000000e+00
3.408567e+03,0.000000e+00
3.420138e+03,0.000000e+00
3.431708e+03,0.000000e+00
3.443279e+03,0.000000e+00
3.454850e+03,0.000000e+00
3.466421e+03,0.000000e+00
3.477992e+03,0.000000e+00
3.489563e+03,0.000000e+00
3.500169e+03,0.000000e+00