File: RAMAN_data/06022023_r2/black fibre1.CSV
9.931763e+01,0.000000e+00
1.108884e+02,0.000000e+00
1.224592e+02,0.000000e+00
1.340300e+02,0.000000e+00
1.456008e+02,0.000000e+00
1.571716e+02,0.000000e+00
1.687424e+02,0.000000e+00
1.803132e+02,0.000000e+00
1.918840e+02,0.000000e+00
2.034548e+02,3.773966e+03
2.150256e+02,3.790450e+03
2.265964e+02,3.799795e+03
2.381673e+02,3.849521e+03
2.497381e+02,3.858609e+03
2.613088e+02,3.900676e+03
2.728796e+02,3.905090e+03
2.844504e+02,3.936919e+03
2.960212e+02,3.935881e+03
3.075920e+02,3.951460e+03
3.191628e+02,3.919559e+03
3.307336e+02,3.957526e+03
3.423044e+02,3.966385e+03
3.538752e+02,3.982343e+03
3.654461e+02,3.977508e+03
3.770169e+02,4.019019e+03
3.885877e+02,3.998667e+03
4.001585e+02,3.993722e+03
4.117293e+02,3.997453e+03
4.233001e+02,4.017899e+03
4.348709e+02,4.014283e+03
4.464417e+02,4.009573e+03
4.580125e+02,4.003999e+03
4.695833e+02,3.984723e+03
4.811541e+02,3.993738e+03
4.927249e+02,3.998578e+03
5.042957e+02,4.001839e+03
5.158665e+02,3.964320e+03
5.274373e+02,3.953422e+03
5.390081e+02,3.934120e+03
5.505789e+02,3.940140e+03
5.621497e+02,3.938518e+03
5.737205e+02,3.923836e+03
5.852913e+02,3.891073e+03
5.968621e+02,3.919151e+03
6.084329e+02,3.913019e+03
6.200037e+02,3.886311e+03
6.315745e+02,3.865584e+03
6.431453e+02,3.861809e+03
6.547161e+02,3.854914e+03
6.662869e+02,3.828496e+03
6.778577e+02,3.803386e+03
6.894285e+02,3.795937e+03
7.009993e+02,3.785636e+03
7.125701e+02,3.775368e+03
7.241409e+02,3.759978e+03
7.357117e+02,3.746721e+03
7.472825e+02,3.726849e+03
7.588533e+02,3.662949e+03
7.704241e+02,3.677509e+03
7.819949e+02,3.643003e+03
7.935657e+02,3.640179e+03
8.051365e+02,3.635334e+03
8.167073e+02,3.609906e+03
8.282781e+02,3.585163e+03
8.398489e+02,3.561238e+03
8.514197e+02,3.538221e+03
8.629905e+02,3.540576e+03
8.745613e+02,3.511284e+03
8.861321e+02,3.503649e+03
8.977029e+02,3.476541e+03
9.092737e+02,3.471038e+03
9.208445e+02,3.435240e+03
9.324153e+02,3.400439e+03
9.439861e+02,3.400218e+03
9.555569e+02,3.368433e+03
9.671277e+02,3.348864e+03
9.786985e+02,3.329928e+03
9.902693e+02,3.317047e+03
1.001840e+03,3.296465e+03
1.013411e+03,3.264768e+03
1.024982e+03,3.264564e+03
1.036552e+03,3.225933e+03
1.048123e+03,3.219105e+03
1.059694e+03,3.207435e+03
1.071265e+03,3.205959e+03
1.082836e+03,3.188961e+03
1.094406e+03,3.202724e+03
1.105977e+03,3.162373e+03
1.117548e+03,3.161116e+03
1.129119e+03,3.148922e+03
1.140690e+03,3.118272e+03
1.152261e+03,3.132290e+03
1.163831e+03,3.070431e+03
1.175402e+03,3.020593e+03
1.186973e+03,3.037959e+03
1.198544e+03,3.014814e+03
1.210115e+03,3.007337e+03
1.221685e+03,2.974598e+03
1.233256e+03,2.945617e+03
1.244827e+03,2.963806e+03
1.256398e+03,2.908324e+03
1.267969e+03,2.911132e+03
1.279539e+03,2.907961e+03
1.291110e+03,2.907136e+03
1.302681e+03,2.864716e+03
1.314252e+03,2.858064e+03
1.325823e+03,2.834636e+03
1.337393e+03,2.858708e+03
1.348964e+03,2.838361e+03
1.360535e+03,2.798272e+03
1.372106e+03,2.795384e+03
1.383677e+03,2.773517e+03
1.395247e+03,2.729041e+03
1.406818e+03,2.699466e+03
1.418389e+03,2.720212e+03
1.429960e+03,2.668637e+03
1.441531e+03,2.663553e+03
1.453101e+03,2.638000e+03
1.464672e+03,2.632992e+03
1.476243e+03,2.621708e+03
1.487814e+03,2.592126e+03
1.499385e+03,2.578479e+03
1.510955e+03,2.558672e+03
1.522526e+03,2.544199e+03
1.534097e+03,2.516348e+03
1.545668e+03,2.508774e+03
1.557239e+03,2.508945e+03
1.568809e+03,2.498755e+03
1.580380e+03,2.497771e+03
1.591951e+03,2.475777e+03
1.603522e+03,2.435760e+03
1.615093e+03,2.424005e+03
1.626663e+03,2.421622e+03
1.638234e+03,2.382320e+03
1.649805e+03,2.357306e+03
1.661376e+03,2.345466e+03
1.672947e+03,2.306850e+03
1.684517e+03,2.317219e+03
1.696088e+03,2.281044e+03
1.707659e+03,2.267365e+03
1.719230e+03,2.247753e+03
1.730801e+03,2.223912e+03
1.742371e+03,2.220534e+03
1.753942e+03,2.202361e+03
1.765513e+03,2.186062e+03
1.777084e+03,2.150410e+03
1.788655e+03,2.134573e+03
1.800225e+03,2.133273e+03
1.811796e+03,2.099566e+03
1.823367e+03,2.080922e+03
1.834938e+03,2.047373e+03
1.846509e+03,2.058643e+03
1.858079e+03,2.017160e+03
1.869650e+03,2.005976e+03
1.881221e+03,1.981057e+03
1.892792e+03,1.954961e+03
1.904363e+03,1.946840e+03
1.915933e+03,1.926515e+03
1.927504e+03,1.908158e+03
1.939075e+03,1.881534e+03
1.950646e+03,1.855683e+03
1.962217e+03,1.840335e+03
1.973787e+03,1.822241e+03
1.985358e+03,1.818320e+03
1.996929e+03,1.785387e+03
2.008500e+03,1.785577e+03
2.020071e+03,1.746976e+03
2.031641e+03,1.738947e+03
2.043212e+03,1.726680e+03
2.054783e+03,1.686422e+03
2.066354e+03,1.663199e+03
2.077925e+03,1.660140e+03
2.089496e+03,1.638944e+03
2.101066e+03,1.629700e+03
2.112637e+03,1.595250e+03
2.124208e+03,1.579581e+03
2.135779e+03,1.570747e+03
2.147350e+03,1.517903e+03
2.158920e+03,1.539224e+03
2.170491e+03,1.519326e+03
2.182062e+03,1.485949e+03
2.193633e+03,1.447466e+03
2.205204e+03,1.463497e+03
2.216774e+03,1.441143e+03
2.228345e+03,1.407508e+03
2.239916e+03,1.393017e+03
2.251487e+03,1.394493e+03
2.263058e+03,1.369789e+03
2.274628e+03,1.360260e+03
2.286199e+03,1.326575e+03
2.297770e+03,1.326135e+03
2.309341e+03,1.306546e+03
2.320912e+03,1.287242e+03
2.332482e+03,1.282326e+03
2.344053e+03,1.261374e+03
2.355624e+03,1.249381e+03
2.367195e+03,1.220273e+03
2.378766e+03,1.217537e+03
2.390336e+03,1.202440e+03
2.401907e+03,1.177289e+03
2.413478e+03,1.172554e+03
2.425049e+03,1.139709e+03
2.436620e+03,1.150156e+03
2.448190e+03,1.129710e+03
2.459761e+03,1.104418e+03
2.471332e+03,1.111092e+03
2.482903e+03,1.104744e+03
2.494474e+03,1.085105e+03
2.506044e+03,1.061075e+03
2.517615e+03,1.058756e+03
2.529186e+03,1.049742e+03
2.540757e+03,1.030507e+03
2.552328e+03,1.031638e+03
2.563898e+03,1.024215e+03
2.575469e+03,1.013888e+03
2.587040e+03,9.873183e+02
2.598611e+03,9.834034e+02
2.610182e+03,9.647051e+02
2.621752e+03,9.504150e+02
2.633323e+03,9.562744e+02
2.644894e+03,9.226354e+02
2.656465e+03,9.279685e+02
2.668036e+03,8.993362e+02
2.679606e+03,9.128182e+02
2.691177e+03,9.204678e+02
2.702748e+03,9.017576e+02
2.714319e+03,8.948965e+02
2.725890e+03,8.584766e+02
2.737460e+03,8.677301e+02
2.749031e+03,8.798085e+02
2.760602e+03,8.447596e+02
2.772173e+03,8.654113e+02
2.783744e+03,8.506077e+02
2.795314e+03,8.281143e+02
2.806885e+03,8.197777e+02
2.818456e+03,7.869454e+02
2.830027e+03,8.148963e+02
2.841598e+03,8.128897e+02
2.853168e+03,8.167281e+02
2.864739e+03,7.823912e+02
2.876310e+03,8.188793e+02
2.887881e+03,8.296129e+02
2.899452e+03,8.165204e+02
2.911022e+03,7.926607e+02
2.922593e+03,7.640853e+02
2.934164e+03,7.675279e+02
2.945735e+03,7.640547e+02
2.957306e+03,7.705114e+02
2.968876e+03,7.670385e+02
2.980447e+03,7.393925e+02
2.992018e+03,7.163242e+02
3.003589e+03,7.094786e+02
3.015160e+03,6.921296e+02
3.026730e+03,7.121384e+02
3.038301e+03,6.940554e+02
3.049872e+03,6.976313e+02
3.061443e+03,6.769097e+02
3.073014e+03,6.819733e+02
3.084584e+03,6.580327e+02
3.096155e+03,6.500120e+02
3.107726e+03,6.893018e+02
3.119297e+03,6.799217e+02
3.130868e+03,6.869622e+02
3.142438e+03,6.869310e+02
3.154009e+03,6.910040e+02
3.165580e+03,6.770231e+02
3.177151e+03,6.941561e+02
3.188722e+03,6.596786e+02
3.200292e+03,6.836238e+02
3.211863e+03,0.000000e+00
3.223434e+03,0.000000e+00
3.235005e+03,0.000000e+00
3.246576e+03,0.000000e+00
3.258146e+03,0.000000e+00
3.269717e+03,0.000000e+00
3.281288e+03,0.000000e+00
3.292859e+03,0.000000e+00
3.304430e+03,0.000000e+00
3.316000e+03,0.000000e+00
3.327571e+03,0.000000e+00
3.339142e+03,0.000000e+00
3.350713e+03,0.000000e+00
3.362284e+03,0.000000e+00
3.373854e+03,0.000000e+00
3.385425e+03,0.000000e+00
3.396996e+03,0.000000e+00
3.408567e+03,0.000000e+00
3.420138e+03,0.000000e+00
3.431708e+03,0.000000e+00
3.443279e+03,0.000000e+00
3.454850e+03,0.000000e+00
3.466421e+03,0.000000e+00
3.477992e+03,0.000000e+00
3.489563e+03,0.000000e+00
3.500169e+03,0.000000e+00