File: RAMAN_data/06022023_r2/black fibre4.CSV
9.931763e+01,0.000000e+00
1.108884e+02,0.000000e+00
1.224592e+02,0.000000e+00
1.340300e+02,0.000000e+00
1.456008e+02,0.000000e+00
1.571716e+02,0.000000e+00
1.687424e+02,0.000000e+00
1.803132e+02,0.000000e+00
1.918840e+02,0.000000e+00
2.034548e+02,1.366840e+03
2.150256e+02,1.381584e+03
2.265964e+02,1.369641e+03
2.381673e+02,1.376503e+03
2.497381e+02,1.367338e+03
2.613088e+02,1.365217e+03
2.728796e+02,1.377637e+03
2.844504e+02,1.378998e+03
2.960212e+02,1.370465e+03
3.075920e+02,1.378909e+03
3.191628e+02,1.370185e+03
3.307336e+02,1.378020e+03
3.423044e+02,1.376391e+03
3.538752e+02,1.372301e+03
3.654461e+02,1.363757e+03
3.770169e+02,1.404659e+03
3.885877e+02,1.362186e+03
4.001585e+02,1.343851e+03
4.117293e+02,1.343782e+03
4.233001e+02,1.343682e+03
4.348709e+02,1.369853e+03
4.464417e+02,1.339982e+03
4.580125e+02,1.340068e+03
4.695833e+02,1.313672e+03
4.811541e+02,1.319976e+03
4.927249e+02,1.316257e+03
5.042957e+02,1.317520e+03
5.158665e+02,1.325299e+03
5.274373e+02,1.315074e+03
5.390081e+02,1.288587e+03
5.505789e+02,1.281016e+03
5.621497e+02,1.281469e+03
5.737205e+02,1.263266e+03
5.852913e+02,1.265052e+03
5.968621e+02,1.260226e+03
6.084329e+02,1.251846e+03
6.200037e+02,1.234692e+03
6.315745e+02,1.234455e+03
6.431453e+02,1.226658e+03
6.547161e+02,1.219164e+03
6.662869e+02,1.215771e+03
6.778577e+02,1.213789e+03
6.894285e+02,1.190601e+03
7.009993e+02,1.198174e+03
7.125701e+02,1.194574e+03
7.241409e+02,1.181050e+03
7.357117e+02,1.176331e+03
7.472825e+02,1.180134e+03
7.588533e+02,1.164905e+03
7.704241e+02,1.138612e+03
7.819949e+02,1.148294e+03
7.935657e+02,1.132235e+03
8.051365e+02,1.124866e+03
8.167073e+02,1.123802e+03
8.282781e+02,1.109919e+03
8.398489e+02,1.111186e+03
8.514197e+02,1.093878e+03
8.629905e+02,1.095011e+03
8.745613e+02,1.093985e+03
8.861321e+02,1.091256e+03
8.977029e+02,1.075051e+03
9.092737e+02,1.071946e+03
9.208445e+02,1.055499e+03
9.324153e+02,1.041517e+03
9.439861e+02,1.047675e+03
9.555569e+02,1.037458e+03
9.671277e+02,1.037976e+03
9.786985e+02,1.027706e+03
9.902693e+02,1.022695e+03
1.001840e+03,1.014281e+03
1.013411e+03,1.016394e+03
1.024982e+03,1.003893e+03
1.036552e+03,1.007765e+03
1.048123e+03,9.988176e+02
1.059694e+03,1.001160e+03
1.071265e+03,9.969368e+02
1.082836e+03,9.972660e+02
1.094406e+03,1.032291e+03
1.105977e+03,9.987109e+02
1.117548e+03,1.007025e+03
1.129119e+03,9.820908e+02
1.140690e+03,9.699539e+02
1.152261e+03,9.770950e+02
1.163831e+03,9.551469e+02
1.175402e+03,9.444430e+02
1.186973e+03,9.279060e+02
1.198544e+03,9.359935e+02
1.210115e+03,9.222972e+02
1.221685e+03,9.249867e+02
1.233256e+03,9.220544e+02
1.244827e+03,9.147440e+02
1.256398e+03,9.105399e+02
1.267969e+03,8.971000e+02
1.279539e+03,9.082708e+02
1.291110e+03,9.242490e+02
1.302681e+03,9.051106e+02
1.314252e+03,9.085704e+02
1.325823e+03,9.087132e+02
1.337393e+03,9.034800e+02
1.348964e+03,8.936932e+02
1.360535e+03,8.844578e+02
1.372106e+03,8.881140e+02
1.383677e+03,8.843905e+02
1.395247e+03,8.690022e+02
1.406818e+03,8.606238e+02
1.418389e+03,8.606505e+02
1.429960e+03,8.502018e+02
1.441531e+03,8.432177e+02
1.453101e+03,8.481671e+02
1.464672e+03,8.465182e+02
1.476243e+03,8.532110e+02
1.487814e+03,8.296295e+02
1.499385e+03,8.243430e+02
1.510955e+03,8.231732e+02
1.522526e+03,8.170441e+02
1.534097e+03,8.278102e+02
1.545668e+03,8.090706e+02
1.557239e+03,8.086318e+02
1.568809e+03,8.056533e+02
1.580380e+03,7.965398e+02
1.591951e+03,7.914766e+02
1.603522e+03,7.777280e+02
1.615093e+03,7.918561e+02
1.626663e+03,7.670372e+02
1.638234e+03,7.766492e+02
1.649805e+03,7.638769e+02
1.661376e+03,7.615656e+02
1.672947e+03,7.593946e+02
1.684517e+03,7.418665e+02
1.696088e+03,7.543527e+02
1.707659e+03,7.484055e+02
1.719230e+03,7.419055e+02
1.730801e+03,7.324103e+02
1.742371e+03,7.299080e+02
1.753942e+03,7.234477e+02
1.765513e+03,7.108588e+02
1.777084e+03,7.029753e+02
1.788655e+03,7.001317e+02
1.800225e+03,6.957970e+02
1.811796e+03,6.811250e+02
1.823367e+03,6.864891e+02
1.834938e+03,6.722102e+02
1.846509e+03,6.597112e+02
1.858079e+03,6.589821e+02
1.869650e+03,6.559834e+02
1.881221e+03,6.461304e+02
1.892792e+03,6.497551e+02
1.904363e+03,6.323033e+02
1.915933e+03,6.372511e+02
1.927504e+03,6.280719e+02
1.939075e+03,6.308392e+02
1.950646e+03,6.224277e+02
1.962217e+03,6.191658e+02
1.973787e+03,6.124304e+02
1.985358e+03,6.145994e+02
1.996929e+03,6.064747e+02
2.008500e+03,5.822667e+02
2.020071e+03,5.859561e+02
2.031641e+03,5.792287e+02
2.043212e+03,5.765713e+02
2.054783e+03,5.734620e+02
2.066354e+03,5.663218e+02
2.077925e+03,5.514529e+02
2.089496e+03,5.540304e+02
2.101066e+03,5.360269e+02
2.112637e+03,5.236956e+02
2.124208e+03,5.343239e+02
2.135779e+03,5.222267e+02
2.147350e+03,5.115252e+02
2.158920e+03,5.129780e+02
2.170491e+03,5.046427e+02
2.182062e+03,5.026388e+02
2.193633e+03,4.929439e+02
2.205204e+03,4.877810e+02
2.216774e+03,4.958924e+02
2.228345e+03,4.892935e+02
2.239916e+03,4.849584e+02
2.251487e+03,4.714053e+02
2.263058e+03,4.682749e+02
2.274628e+03,4.663993e+02
2.286199e+03,4.608124e+02
2.297770e+03,4.599624e+02
2.309341e+03,4.500075e+02
2.320912e+03,4.487074e+02
2.332482e+03,4.384350e+02
2.344053e+03,4.352313e+02
2.355624e+03,4.294856e+02
2.367195e+03,4.205120e+02
2.378766e+03,4.164650e+02
2.390336e+03,4.155998e+02
2.401907e+03,4.098302e+02
2.413478e+03,3.949093e+02
2.425049e+03,3.940941e+02
2.436620e+03,4.062585e+02
2.448190e+03,3.917175e+02
2.459761e+03,3.888618e+02
2.471332e+03,3.913376e+02
2.482903e+03,3.922977e+02
2.494474e+03,3.762298e+02
2.506044e+03,3.762424e+02
2.517615e+03,3.836968e+02
2.529186e+03,3.892238e+02
2.540757e+03,3.772128e+02
2.552328e+03,3.871965e+02
2.563898e+03,3.766824e+02
2.575469e+03,3.738128e+02
2.587040e+03,3.691850e+02
2.598611e+03,3.502358e+02
2.610182e+03,3.525859e+02
2.621752e+03,3.573231e+02
2.633323e+03,3.519033e+02
2.644894e+03,3.354112e+02
2.656465e+03,3.321286e+02
2.668036e+03,3.373511e+02
2.679606e+03,3.252246e+02
2.691177e+03,3.386727e+02
2.702748e+03,3.282622e+02
2.714319e+03,3.352831e+02
2.725890e+03,3.201984e+02
2.737460e+03,3.250461e+02
2.749031e+03,3.250234e+02
2.760602e+03,3.197391e+02
2.772173e+03,3.218058e+02
2.783744e+03,3.288033e+02
2.795314e+03,3.192183e+02
2.806885e+03,3.313506e+02
2.818456e+03,3.174537e+02
2.830027e+03,3.244266e+02
2.841598e+03,3.356291e+02
2.853168e+03,3.324210e+02
2.864739e+03,3.210930e+02
2.876310e+03,3.353798e+02
2.887881e+03,3.617838e+02
2.899452e+03,3.601851e+02
2.911022e+03,3.345944e+02
2.922593e+03,3.169143e+02
2.934164e+03,3.101493e+02
2.945735e+03,3.105275e+02
2.957306e+03,3.301817e+02
2.968876e+03,3.102970e+02
2.980447e+03,2.996952e+02
2.992018e+03,2.829491e+02
3.003589e+03,2.660337e+02
3.015160e+03,2.778727e+02
3.026730e+03,2.735679e+02
3.038301e+03,2.728022e+02
3.049872e+03,2.714576e+02
3.061443e+03,2.756509e+02
3.073014e+03,2.526582e+02
3.084584e+03,2.735755e+02
3.096155e+03,2.768586e+02
3.107726e+03,2.752972e+02
3.119297e+03,2.796454e+02
3.130868e+03,2.864263e+02
3.142438e+03,2.773188e+02
3.154009e+03,2.919598e+02
3.165580e+03,2.842255e+02
3.177151e+03,2.786243e+02
3.188722e+03,2.502651e+02
3.200292e+03,3.130280e+02
3.211863e+03,0.000000e+00
3.223434e+03,0.000000e+00
3.235005e+03,0.000000e+00
3.246576e+03,0.000000e+00
3.258146e+03,0.000000e+00
3.269717e+03,0.000000e+00
3.281288e+03,0.000000e+00
3.292859e+03,0.000000e+00
3.304430e+03,0.000000e+00
3.316000e+03,0.000000e+00
3.327571e+03,0.000000e+00
3.339142e+03,0.000000e+00
3.350713e+03,0.000000e+00
3.362284e+03,0.000000e+00
3.373854e+03,0.000000e+00
3.385425e+03,0.000000e+00
3.396996e+03,0.000000e+00
3.408567e+03,0.000000e+00
3.420138e+03,0.000000e+00
3.431708e+03,0.000000e+00
3.443279e+03,0.000000e+00
3.454850e+03,0.000000e+00
3.466421e+03,0.000000e+00
3.477992e+03,0.000000e+00
3.489563e+03,0.000000e+00
3.500169e+03,0.000000e+00