File: RAMAN_data/06022023_r2/black fibre5.CSV
9.931763e+01,0.000000e+00
1.108884e+02,0.000000e+00
1.224592e+02,0.000000e+00
1.340300e+02,0.000000e+00
1.456008e+02,0.000000e+00
1.571716e+02,0.000000e+00
1.687424e+02,0.000000e+00
1.803132e+02,0.000000e+00
1.918840e+02,0.000000e+00
2.034548e+02,9.284197e+02
2.150256e+02,9.297040e+02
2.265964e+02,9.278652e+02
2.381673e+02,9.332307e+02
2.497381e+02,9.466109e+02
2.613088e+02,9.394163e+02
2.728796e+02,9.477659e+02
2.844504e+02,9.504505e+02
2.960212e+02,9.458503e+02
3.075920e+02,9.522548e+02
3.191628e+02,9.569890e+02
3.307336e+02,9.573520e+02
3.423044e+02,9.529498e+02
3.538752e+02,9.602377e+02
3.654461e+02,9.540057e+02
3.770169e+02,9.828489e+02
3.885877e+02,9.533711e+02
4.001585e+02,9.310402e+02
4.117293e+02,9.393839e+02
4.233001e+02,9.342070e+02
4.348709e+02,9.573463e+02
4.464417e+02,9.378398e+02
4.580125e+02,9.447966e+02
4.695833e+02,9.166847e+02
4.811541e+02,9.292211e+02
4.927249e+02,9.127697e+02
5.042957e+02,9.237733e+02
5.158665e+02,9.316576e+02
5.274373e+02,9.103758e+02
5.390081e+02,9.066557e+02
5.505789e+02,8.964182e+02
5.621497e+02,8.865441e+02
5.737205e+02,8.889716e+02
5.852913e+02,8.827140e+02
5.968621e+02,8.745975e+02
6.084329e+02,8.875295e+02
6.200037e+02,8.650471e+02
6.315745e+02,8.673458e+02
6.431453e+02,8.578336e+02
6.547161e+02,8.520419e+02
6.662869e+02,8.480690e+02
6.778577e+02,8.397060e+02
6.894285e+02,8.310869e+02
7.009993e+02,8.336141e+02
7.125701e+02,8.207800e+02
7.241409e+02,8.226967e+02
7.357117e+02,8.201974e+02
7.472825e+02,8.122064e+02
7.588533e+02,8.023995e+02
7.704241e+02,7.884898e+02
7.819949e+02,7.968759e+02
7.935657e+02,7.871563e+02
8.051365e+02,7.990624e+02
8.167073e+02,7.706821e+02
8.282781e+02,7.800604e+02
8.398489e+02,7.679070e+02
8.514197e+02,7.602974e+02
8.629905e+02,7.546279e+02
8.745613e+02,7.539202e+02
8.861321e+02,7.572700e+02
8.977029e+02,7.509525e+02
9.092737e+02,7.342006e+02
9.208445e+02,7.202695e+02
9.324153e+02,7.151198e+02
9.439861e+02,7.121621e+02
9.555569e+02,7.083757e+02
9.671277e+02,7.066090e+02
9.786985e+02,6.992744e+02
9.902693e+02,6.945936e+02
1.001840e+03,6.863957e+02
1.013411e+03,6.785978e+02
1.024982e+03,6.798047e+02
1.036552e+03,6.817620e+02
1.048123e+03,6.820134e+02
1.059694e+03,6.752351e+02
1.071265e+03,6.730343e+02
1.082836e+03,6.762382e+02
1.094406e+03,7.100585e+02
1.105977e+03,6.701337e+02
1.117548e+03,6.825627e+02
1.129119e+03,6.625295e+02
1.140690e+03,6.408471e+02
1.152261e+03,6.500452e+02
1.163831e+03,6.354474e+02
1.175402e+03,6.199886e+02
1.186973e+03,6.168517e+02
1.198544e+03,6.225573e+02
1.210115e+03,6.078134e+02
1.221685e+03,6.090190e+02
1.233256e+03,6.063058e+02
1.244827e+03,6.052748e+02
1.256398e+03,6.070040e+02
1.267969e+03,5.939574e+02
1.279539e+03,5.971521e+02
1.291110e+03,5.953213e+02
1.302681e+03,5.915361e+02
1.314252e+03,5.936705e+02
1.325823e+03,5.924943e+02
1.337393e+03,5.972490e+02
1.348964e+03,5.822953e+02
1.360535e+03,5.835141e+02
1.372106e+03,5.958463e+02
1.383677e+03,5.876479e+02
1.395247e+03,5.714041e+02
1.406818e+03,5.699666e+02
1.418389e+03,5.560022e+02
1.429960e+03,5.572377e+02
1.441531e+03,5.478890e+02
1.453101e+03,5.535823e+02
1.464672e+03,5.485751e+02
1.476243e+03,5.408632e+02
1.487814e+03,5.311720e+02
1.499385e+03,5.290887e+02
1.510955e+03,5.236938e+02
1.522526e+03,5.165865e+02
1.534097e+03,5.135128e+02
1.545668e+03,5.091343e+02
1.557239e+03,5.039883e+02
1.568809e+03,5.130331e+02
1.580380e+03,5.067109e+02
1.591951e+03,5.014190e+02
1.603522e+03,4.969659e+02
1.615093e+03,4.921481e+02
1.626663e+03,4.890017e+02
1.638234e+03,4.869489e+02
1.649805e+03,4.733259e+02
1.661376e+03,4.768651e+02
1.672947e+03,4.747247e+02
1.684517e+03,4.656752e+02
1.696088e+03,4.603456e+02
1.707659e+03,4.562891e+02
1.719230e+03,4.599127e+02
1.730801e+03,4.515737e+02
1.742371e+03,4.512535e+02
1.753942e+03,4.429277e+02
1.765513e+03,4.349691e+02
1.777084e+03,4.365110e+02
1.788655e+03,4.290078e+02
1.800225e+03,4.320767e+02
1.811796e+03,4.216603e+02
1.823367e+03,4.214238e+02
1.834938e+03,4.083454e+02
1.846509e+03,4.075864e+02
1.858079e+03,4.074877e+02
1.869650e+03,4.078238e+02
1.881221e+03,4.047159e+02
1.892792e+03,3.932348e+02
1.904363e+03,3.863404e+02
1.915933e+03,3.863553e+02
1.927504e+03,3.793932e+02
1.939075e+03,3.866075e+02
1.950646e+03,3.711884e+02
1.962217e+03,3.720960e+02
1.973787e+03,3.714761e+02
1.985358e+03,3.664103e+02
1.996929e+03,3.614821e+02
2.008500e+03,3.474826e+02
2.020071e+03,3.531653e+02
2.031641e+03,3.433494e+02
2.043212e+03,3.432931e+02
2.054783e+03,3.358829e+02
2.066354e+03,3.388135e+02
2.077925e+03,3.255225e+02
2.089496e+03,3.245246e+02
2.101066e+03,3.286881e+02
2.112637e+03,3.148723e+02
2.124208e+03,3.179901e+02
2.135779e+03,3.170822e+02
2.147350e+03,2.926253e+02
2.158920e+03,2.959964e+02
2.170491e+03,3.007269e+02
2.182062e+03,2.873823e+02
2.193633e+03,2.958457e+02
2.205204e+03,2.924383e+02
2.216774e+03,2.823151e+02
2.228345e+03,2.774234e+02
2.239916e+03,2.740608e+02
2.251487e+03,2.742241e+02
2.263058e+03,2.679492e+02
2.274628e+03,2.653294e+02
2.286199e+03,2.601102e+02
2.297770e+03,2.584632e+02
2.309341e+03,2.549067e+02
2.320912e+03,2.507238e+02
2.332482e+03,2.488969e+02
2.344053e+03,2.455287e+02
2.355624e+03,2.474195e+02
2.367195e+03,2.418434e+02
2.378766e+03,2.439621e+02
2.390336e+03,2.339019e+02
2.401907e+03,2.401674e+02
2.413478e+03,2.211886e+02
2.425049e+03,2.211583e+02
2.436620e+03,2.252420e+02
2.448190e+03,2.172946e+02
2.459761e+03,2.143065e+02
2.471332e+03,2.125543e+02
2.482903e+03,2.194336e+02
2.494474e+03,2.084304e+02
2.506044e+03,2.176997e+02
2.517615e+03,2.117940e+02
2.529186e+03,2.034699e+02
2.540757e+03,2.054659e+02
2.552328e+03,2.063596e+02
2.563898e+03,2.159144e+02
2.575469e+03,2.064033e+02
2.587040e+03,2.038038e+02
2.598611e+03,1.995151e+02
2.610182e+03,1.933053e+02
2.621752e+03,1.989918e+02
2.633323e+03,1.897547e+02
2.644894e+03,1.906156e+02
2.656465e+03,1.919601e+02
2.668036e+03,1.876735e+02
2.679606e+03,1.731324e+02
2.691177e+03,1.883951e+02
2.702748e+03,1.890379e+02
2.714319e+03,1.788931e+02
2.725890e+03,1.791590e+02
2.737460e+03,1.667953e+02
2.749031e+03,1.775335e+02
2.760602e+03,1.728494e+02
2.772173e+03,1.793232e+02
2.783744e+03,1.799683e+02
2.795314e+03,1.692654e+02
2.806885e+03,1.637121e+02
2.818456e+03,1.711038e+02
2.830027e+03,1.727498e+02
2.841598e+03,1.830916e+02
2.853168e+03,1.856720e+02
2.864739e+03,1.972169e+02
2.876310e+03,1.900443e+02
2.887881e+03,2.213939e+02
2.899452e+03,2.203054e+02
2.911022e+03,2.068304e+02
2.922593e+03,1.745604e+02
2.934164e+03,1.620172e+02
2.945735e+03,1.956499e+02
2.957306e+03,2.163832e+02
2.968876e+03,1.692024e+02
2.980447e+03,1.607363e+02
2.992018e+03,1.459762e+02
3.003589e+03,1.601063e+02
3.015160e+03,1.550912e+02
3.026730e+03,1.468649e+02
3.038301e+03,1.473422e+02
3.049872e+03,1.392056e+02
3.061443e+03,1.451447e+02
3.073014e+03,1.285469e+02
3.084584e+03,1.414210e+02
3.096155e+03,1.415019e+02
3.107726e+03,1.435270e+02
3.119297e+03,1.523439e+02
3.130868e+03,1.716069e+02
3.142438e+03,1.634090e+02
3.154009e+03,1.705965e+02
3.165580e+03,1.663913e+02
3.177151e+03,1.452946e+02
3.188722e+03,1.126939e+02
3.200292e+03,1.548789e+02
3.211863e+03,0.000000e+00
3.223434e+03,0.000000e+00
3.235005e+03,0.000000e+00
3.246576e+03,0.000000e+00
3.258146e+03,0.000000e+00
3.269717e+03,0.000000e+00
3.281288e+03,0.000000e+00
3.292859e+03,0.000000e+00
3.304430e+03,0.000000e+00
3.316000e+03,0.000000e+00
3.327571e+03,0.000000e+00
3.339142e+03,0.000000e+00
3.350713e+03,0.000000e+00
3.362284e+03,0.000000e+00
3.373854e+03,0.000000e+00
3.385425e+03,0.000000e+00
3.396996e+03,0.000000e+00
3.408567e+03,0.000000e+00
3.420138e+03,0.000000e+00
3.431708e+03,0.000000e+00
3.443279e+03,0.000000e+00
3.454850e+03,0.000000e+00
3.466421e+03,0.000000e+00
3.477992e+03,0.000000e+00
3.489563e+03,0.000000e+00
3.500169e+03,0.000000e+00