File: RAMAN_data/06022023_r2/black fibre2.CSV
9.931763e+01,0.000000e+00
1.108884e+02,0.000000e+00
1.224592e+02,0.000000e+00
1.340300e+02,0.000000e+00
1.456008e+02,0.000000e+00
1.571716e+02,0.000000e+00
1.687424e+02,0.000000e+00
1.803132e+02,0.000000e+00
1.918840e+02,0.000000e+00
2.034548e+02,1.017672e+03
2.150256e+02,1.017709e+03
2.265964e+02,1.015235e+03
2.381673e+02,1.016693e+03
2.497381e+02,1.018694e+03
2.613088e+02,1.019395e+03
2.728796e+02,1.022363e+03
2.844504e+02,1.025422e+03
2.960212e+02,1.018945e+03
3.075920e+02,1.011493e+03
3.191628e+02,1.013938e+03
3.307336e+02,1.023146e+03
3.423044e+02,1.027470e+03
3.538752e+02,1.017685e+03
3.654461e+02,1.011677e+03
3.770169e+02,1.025490e+03
3.885877e+02,1.010120e+03
4.001585e+02,1.005768e+03
4.117293e+02,1.005828e+03
4.233001e+02,1.008673e+03
4.348709e+02,1.006352e+03
4.464417e+02,9.992927e+02
4.580125e+02,9.973688e+02
4.695833e+02,9.861541e+02
4.811541e+02,9.906305e+02
4.927249e+02,9.953448e+02
5.042957e+02,9.788485e+02
5.158665e+02,9.823688e+02
5.274373e+02,9.761773e+02
5.390081e+02,9.650394e+02
5.505789e+02,9.602179e+02
5.621497e+02,9.706653e+02
5.737205e+02,9.513723e+02
5.852913e+02,9.555367e+02
5.968621e+02,9.490526e+02
6.084329e+02,9.348787e+02
6.200037e+02,9.320293e+02
6.315745e+02,9.274979e+02
6.431453e+02,9.241502e+02
6.547161e+02,9.164532e+02
6.662869e+02,9.191152e+02
6.778577e+02,9.176013e+02
6.894285e+02,9.062048e+02
7.009993e+02,9.087412e+02
7.125701e+02,8.975062e+02
7.241409e+02,8.931198e+02
7.357117e+02,8.840218e+02
7.472825e+02,8.791289e+02
7.588533e+02,8.698510e+02
7.704241e+02,8.652574e+02
7.819949e+02,8.643777e+02
7.935657e+02,8.582966e+02
8.051365e+02,8.481020e+02
8.167073e+02,8.532280e+02
8.282781e+02,8.450204e+02
8.398489e+02,8.399826e+02
8.514197e+02,8.325506e+02
8.629905e+02,8.331675e+02
8.745613e+02,8.268645e+02
8.861321e+02,8.226756e+02
8.977029e+02,8.032055e+02
9.092737e+02,8.041954e+02
9.208445e+02,8.004462e+02
9.324153e+02,7.843103e+02
9.439861e+02,7.751418e+02
9.555569e+02,7.750028e+02
9.671277e+02,7.677119e+02
9.786985e+02,7.687077e+02
9.902693e+02,7.669413e+02
1.001840e+03,7.610164e+02
1.013411e+03,7.471780e+02
1.024982e+03,7.462473e+02
1.036552e+03,7.367048e+02
1.048123e+03,7.377177e+02
1.059694e+03,7.305243e+02
1.071265e+03,7.287512e+02
1.082836e+03,7.346818e+02
1.094406e+03,7.480277e+02
1.105977e+03,7.234442e+02
1.117548e+03,7.271090e+02
1.129119e+03,7.106376e+02
1.140690e+03,6.953818e+02
1.152261e+03,6.952920e+02
1.163831e+03,6.900657e+02
1.175402e+03,6.726360e+02
1.186973e+03,6.651446e+02
1.198544e+03,6.720999e+02
1.210115e+03,6.581800e+02
1.221685e+03,6.545984e+02
1.233256e+03,6.476246e+02
1.244827e+03,6.455201e+02
1.256398e+03,6.419183e+02
1.267969e+03,6.329805e+02
1.279539e+03,6.429768e+02
1.291110e+03,6.379310e+02
1.302681e+03,6.245762e+02
1.314252e+03,6.250797e+02
1.325823e+03,6.255678e+02
1.337393e+03,6.314706e+02
1.348964e+03,6.143801e+02
1.360535e+03,6.117820e+02
1.372106e+03,6.123836e+02
1.383677e+03,6.060397e+02
1.395247e+03,5.883019e+02
1.406818e+03,5.868725e+02
1.418389e+03,5.860569e+02
1.429960e+03,5.793383e+02
1.441531e+03,5.706689e+02
1.453101e+03,5.728875e+02
1.464672e+03,5.658621e+02
1.476243e+03,5.632323e+02
1.487814e+03,5.521855e+02
1.499385e+03,5.404631e+02
1.510955e+03,5.460723e+02
1.522526e+03,5.466273e+02
1.534097e+03,5.325304e+02
1.545668e+03,5.322800e+02
1.557239e+03,5.282585e+02
1.568809e+03,5.218290e+02
1.580380e+03,5.217432e+02
1.591951e+03,5.305094e+02
1.603522e+03,5.164437e+02
1.615093e+03,5.090909e+02
1.626663e+03,4.959718e+02
1.638234e+03,4.978147e+02
1.649805e+03,4.938059e+02
1.661376e+03,4.895150e+02
1.672947e+03,4.840947e+02
1.684517e+03,4.805372e+02
1.696088e+03,4.737550e+02
1.707659e+03,4.726629e+02
1.719230e+03,4.686476e+02
1.730801e+03,4.604329e+02
1.742371e+03,4.574385e+02
1.753942e+03,4.590549e+02
1.765513e+03,4.453847e+02
1.777084e+03,4.500218e+02
1.788655e+03,4.376631e+02
1.800225e+03,4.325407e+02
1.811796e+03,4.313790e+02
1.823367e+03,4.395412e+02
1.834938e+03,4.160522e+02
1.846509e+03,4.182180e+02
1.858079e+03,4.137587e+02
1.869650e+03,4.078820e+02
1.881221e+03,4.019244e+02
1.892792e+03,3.986787e+02
1.904363e+03,3.912688e+02
1.915933e+03,3.896468e+02
1.927504e+03,3.831859e+02
1.939075e+03,3.868802e+02
1.950646e+03,3.824308e+02
1.962217e+03,3.800160e+02
1.973787e+03,3.764994e+02
1.985358e+03,3.717027e+02
1.996929e+03,3.723226e+02
2.008500e+03,3.629738e+02
2.020071e+03,3.552996e+02
2.031641e+03,3.464536e+02
2.043212e+03,3.406158e+02
2.054783e+03,3.373206e+02
2.066354e+03,3.472160e+02
2.077925e+03,3.295675e+02
2.089496e+03,3.242487e+02
2.101066e+03,3.236090e+02
2.112637e+03,3.214718e+02
2.124208e+03,3.226400e+02
2.135779e+03,3.179229e+02
2.147350e+03,3.007795e+02
2.158920e+03,3.061402e+02
2.170491e+03,2.991087e+02
2.182062e+03,3.000042e+02
2.193633e+03,2.929552e+02
2.205204e+03,2.966719e+02
2.216774e+03,2.864668e+02
2.228345e+03,2.959162e+02
2.239916e+03,2.778349e+02
2.251487e+03,2.832004e+02
2.263058e+03,2.738806e+02
2.274628e+03,2.718803e+02
2.286199e+03,2.669685e+02
2.297770e+03,2.657974e+02
2.309341e+03,2.617550e+02
2.320912e+03,2.588969e+02
2.332482e+03,2.487589e+02
2.344053e+03,2.556941e+02
2.355624e+03,2.478466e+02
2.367195e+03,2.434380e+02
2.378766e+03,2.489168e+02
2.390336e+03,2.371436e+02
2.401907e+03,2.456488e+02
2.413478e+03,2.231733e+02
2.425049e+03,2.294286e+02
2.436620e+03,2.240806e+02
2.448190e+03,2.173568e+02
2.459761e+03,2.231411e+02
2.471332e+03,2.267343e+02
2.482903e+03,2.233518e+02
2.494474e+03,2.224458e+02
2.506044e+03,2.112338e+02
2.517615e+03,2.169016e+02
2.529186e+03,2.038284e+02
2.540757e+03,2.092736e+02
2.552328e+03,2.147763e+02
2.563898e+03,2.061313e+02
2.575469e+03,2.090295e+02
2.587040e+03,2.033835e+02
2.598611e+03,1.960095e+02
2.610182e+03,1.880733e+02
2.621752e+03,1.875358e+02
2.633323e+03,1.934064e+02
2.644894e+03,1.843174e+02
2.656465e+03,1.897282e+02
2.668036e+03,1.894109e+02
2.679606e+03,1.852596e+02
2.691177e+03,1.806001e+02
2.702748e+03,1.799442e+02
2.714319e+03,1.849246e+02
2.725890e+03,1.772075e+02
2.737460e+03,1.747012e+02
2.749031e+03,1.785098e+02
2.760602e+03,1.724659e+02
2.772173e+03,1.711341e+02
2.783744e+03,1.679172e+02
2.795314e+03,1.778346e+02
2.806885e+03,1.651448e+02
2.818456e+03,1.677744e+02
2.830027e+03,1.775278e+02
2.841598e+03,1.718836e+02
2.853168e+03,1.730074e+02
2.864739e+03,1.686960e+02
2.876310e+03,1.901108e+02
2.887881e+03,1.890460e+02
2.899452e+03,2.013834e+02
2.911022e+03,1.911557e+02
2.922593e+03,1.771132e+02
2.934164e+03,1.808234e+02
2.945735e+03,1.784175e+02
2.957306e+03,2.023814e+02
2.968876e+03,1.628904e+02
2.980447e+03,1.427022e+02
2.992018e+03,1.585259e+02
3.003589e+03,1.605961e+02
3.015160e+03,1.559213e+02
3.026730e+03,1.400024e+02
3.038301e+03,1.420697e+02
3.049872e+03,1.523822e+02
3.061443e+03,1.382227e+02
3.073014e+03,1.376025e+02
3.084584e+03,1.479978e+02
3.096155e+03,1.432077e+02
3.107726e+03,1.464733e+02
3.119297e+03,1.557685e+02
3.130868e+03,1.522312e+02
3.142438e+03,1.552298e+02
3.154009e+03,1.690533e+02
3.165580e+03,1.479348e+02
3.177151e+03,1.459005e+02
3.188722e+03,1.237523e+02
3.200292e+03,1.699076e+02
3.211863e+03,0.000000e+00
3.223434e+03,0.000000e+00
3.235005e+03,0.000000e+00
3.246576e+03,0.000000e+00
3.258146e+03,0.000000e+00
3.269717e+03,0.000000e+00
3.281288e+03,0.000000e+00
3.292859e+03,0.000000e+00
3.304430e+03,0.000000e+00
3.316000e+03,0.000000e+00
3.327571e+03,0.000000e+00
3.339142e+03,0.000000e+00
3.350713e+03,0.000000e+00
3.362284e+03,0.000000e+00
3.373854e+03,0.000000e+00
3.385425e+03,0.000000e+00
3.396996e+03,0.000000e+00
3.408567e+03,0.000000e+00
3.420138e+03,0.000000e+00
3.431708e+03,0.000000e+00
3.443279e+03,0.000000e+00
3.454850e+03,0.000000e+00
3.466421e+03,0.000000e+00
3.477992e+03,0.000000e+00
3.489563e+03,0.000000e+00
3.500169e+03,0.000000e+00