File: RAMAN_data/06022023_r2/black fibre6.CSV
9.931763e+01,0.000000e+00
1.108884e+02,0.000000e+00
1.224592e+02,0.000000e+00
1.340300e+02,0.000000e+00
1.456008e+02,0.000000e+00
1.571716e+02,0.000000e+00
1.687424e+02,0.000000e+00
1.803132e+02,0.000000e+00
1.918840e+02,0.000000e+00
2.034548e+02,2.324615e+03
2.150256e+02,2.343670e+03
2.265964e+02,2.361985e+03
2.381673e+02,2.393353e+03
2.497381e+02,2.427237e+03
2.613088e+02,2.454476e+03
2.728796e+02,2.479803e+03
2.844504e+02,2.526115e+03
2.960212e+02,2.513491e+03
3.075920e+02,2.521013e+03
3.191628e+02,2.546030e+03
3.307336e+02,2.561975e+03
3.423044e+02,2.579697e+03
3.538752e+02,2.597535e+03
3.654461e+02,2.607733e+03
3.770169e+02,2.655870e+03
3.885877e+02,2.630416e+03
4.001585e+02,2.649636e+03
4.117293e+02,2.659926e+03
4.233001e+02,2.662641e+03
4.348709e+02,2.709961e+03
4.464417e+02,2.705322e+03
4.580125e+02,2.725769e+03
4.695833e+02,2.716939e+03
4.811541e+02,2.705937e+03
4.927249e+02,2.733951e+03
5.042957e+02,2.738519e+03
5.158665e+02,2.762396e+03
5.274373e+02,2.765996e+03
5.390081e+02,2.793804e+03
5.505789e+02,2.803435e+03
5.621497e+02,2.826516e+03
5.737205e+02,2.785167e+03
5.852913e+02,2.777034e+03
5.968621e+02,2.810272e+03
6.084329e+02,2.812482e+03
6.200037e+02,2.794330e+03
6.315745e+02,2.788481e+03
6.431453e+02,2.809094e+03
6.547161e+02,2.805599e+03
6.662869e+02,2.829082e+03
6.778577e+02,2.804421e+03
6.894285e+02,2.792664e+03
7.009993e+02,2.796964e+03
7.125701e+02,2.781452e+03
7.241409e+02,2.784090e+03
7.357117e+02,2.774827e+03
7.472825e+02,2.777135e+03
7.588533e+02,2.786882e+03
7.704241e+02,2.786165e+03
7.819949e+02,2.776701e+03
7.935657e+02,2.764762e+03
8.051365e+02,2.768962e+03
8.167073e+02,2.755148e+03
8.282781e+02,2.778118e+03
8.398489e+02,2.761728e+03
8.514197e+02,2.753189e+03
8.629905e+02,2.739000e+03
8.745613e+02,2.741612e+03
8.861321e+02,2.743621e+03
8.977029e+02,2.738144e+03
9.092737e+02,2.722502e+03
9.208445e+02,2.719139e+03
9.324153e+02,2.704192e+03
9.439861e+02,2.699695e+03
9.555569e+02,2.671975e+03
9.671277e+02,2.688347e+03
9.786985e+02,2.659325e+03
9.902693e+02,2.652476e+03
1.001840e+03,2.644523e+03
1.013411e+03,2.651548e+03
1.024982e+03,2.644982e+03
1.036552e+03,2.652946e+03
1.048123e+03,2.635720e+03
1.059694e+03,2.626222e+03
1.071265e+03,2.647537e+03
1.082836e+03,2.639187e+03
1.094406e+03,2.662467e+03
1.105977e+03,2.621413e+03
1.117548e+03,2.624671e+03
1.129119e+03,2.590917e+03
1.140690e+03,2.587605e+03
1.152261e+03,2.586199e+03
1.163831e+03,2.559105e+03
1.175402e+03,2.546335e+03
1.186973e+03,2.539185e+03
1.198544e+03,2.547112e+03
1.210115e+03,2.533487e+03
1.221685e+03,2.538924e+03
1.233256e+03,2.526631e+03
1.244827e+03,2.530824e+03
1.256398e+03,2.514498e+03
1.267969e+03,2.497777e+03
1.279539e+03,2.511279e+03
1.291110e+03,2.507278e+03
1.302681e+03,2.497725e+03
1.314252e+03,2.497321e+03
1.325823e+03,2.516263e+03
1.337393e+03,2.526290e+03
1.348964e+03,2.519180e+03
1.360535e+03,2.527907e+03
1.372106e+03,2.541919e+03
1.383677e+03,2.533720e+03
1.395247e+03,2.501964e+03
1.406818e+03,2.489495e+03
1.418389e+03,2.482150e+03
1.429960e+03,2.478575e+03
1.441531e+03,2.456077e+03
1.453101e+03,2.461530e+03
1.464672e+03,2.460925e+03
1.476243e+03,2.433415e+03
1.487814e+03,2.412282e+03
1.499385e+03,2.400345e+03
1.510955e+03,2.400042e+03
1.522526e+03,2.399352e+03
1.534097e+03,2.370085e+03
1.545668e+03,2.368731e+03
1.557239e+03,2.362557e+03
1.568809e+03,2.393904e+03
1.580380e+03,2.374026e+03
1.591951e+03,2.342766e+03
1.603522e+03,2.327873e+03
1.615093e+03,2.320731e+03
1.626663e+03,2.283852e+03
1.638234e+03,2.281631e+03
1.649805e+03,2.266753e+03
1.661376e+03,2.254629e+03
1.672947e+03,2.246358e+03
1.684517e+03,2.235804e+03
1.696088e+03,2.228769e+03
1.707659e+03,2.229078e+03
1.719230e+03,2.217702e+03
1.730801e+03,2.191599e+03
1.742371e+03,2.187873e+03
1.753942e+03,2.192046e+03
1.765513e+03,2.195298e+03
1.777084e+03,2.169009e+03
1.788655e+03,2.147689e+03
1.800225e+03,2.143553e+03
1.811796e+03,2.134876e+03
1.823367e+03,2.128019e+03
1.834938e+03,2.114207e+03
1.846509e+03,2.123189e+03
1.858079e+03,2.102142e+03
1.869650e+03,2.092644e+03
1.881221e+03,2.073302e+03
1.892792e+03,2.073140e+03
1.904363e+03,2.055573e+03
1.915933e+03,2.020914e+03
1.927504e+03,2.020186e+03
1.939075e+03,2.008652e+03
1.950646e+03,2.013754e+03
1.962217e+03,1.984318e+03
1.973787e+03,1.983783e+03
1.985358e+03,1.976973e+03
1.996929e+03,1.965767e+03
2.008500e+03,1.952460e+03
2.020071e+03,1.928168e+03
2.031641e+03,1.904930e+03
2.043212e+03,1.904660e+03
2.054783e+03,1.861560e+03
2.066354e+03,1.875790e+03
2.077925e+03,1.846389e+03
2.089496e+03,1.870977e+03
2.101066e+03,1.824494e+03
2.112637e+03,1.829230e+03
2.124208e+03,1.815103e+03
2.135779e+03,1.790506e+03
2.147350e+03,1.774383e+03
2.158920e+03,1.780991e+03
2.170491e+03,1.778464e+03
2.182062e+03,1.746428e+03
2.193633e+03,1.741729e+03
2.205204e+03,1.733750e+03
2.216774e+03,1.721778e+03
2.228345e+03,1.672756e+03
2.239916e+03,1.694227e+03
2.251487e+03,1.673266e+03
2.263058e+03,1.650833e+03
2.274628e+03,1.633384e+03
2.286199e+03,1.635004e+03
2.297770e+03,1.622180e+03
2.309341e+03,1.599439e+03
2.320912e+03,1.595505e+03
2.332482e+03,1.581246e+03
2.344053e+03,1.576328e+03
2.355624e+03,1.545663e+03
2.367195e+03,1.519691e+03
2.378766e+03,1.534318e+03
2.390336e+03,1.520419e+03
2.401907e+03,1.509136e+03
2.413478e+03,1.490277e+03
2.425049e+03,1.505677e+03
2.436620e+03,1.475444e+03
2.448190e+03,1.479376e+03
2.459761e+03,1.447702e+03
2.471332e+03,1.442681e+03
2.482903e+03,1.441281e+03
2.494474e+03,1.408067e+03
2.506044e+03,1.404132e+03
2.517615e+03,1.401251e+03
2.529186e+03,1.404927e+03
2.540757e+03,1.379528e+03
2.552328e+03,1.387335e+03
2.563898e+03,1.365727e+03
2.575469e+03,1.362226e+03
2.587040e+03,1.351702e+03
2.598611e+03,1.341529e+03
2.610182e+03,1.320910e+03
2.621752e+03,1.311250e+03
2.633323e+03,1.326358e+03
2.644894e+03,1.295919e+03
2.656465e+03,1.293980e+03
2.668036e+03,1.307375e+03
2.679606e+03,1.283955e+03
2.691177e+03,1.289602e+03
2.702748e+03,1.256136e+03
2.714319e+03,1.287226e+03
2.725890e+03,1.246088e+03
2.737460e+03,1.245800e+03
2.749031e+03,1.252198e+03
2.760602e+03,1.204320e+03
2.772173e+03,1.234824e+03
2.783744e+03,1.202145e+03
2.795314e+03,1.217392e+03
2.806885e+03,1.196894e+03
2.818456e+03,1.194298e+03
2.830027e+03,1.208446e+03
2.841598e+03,1.198905e+03
2.853168e+03,1.181958e+03
2.864739e+03,1.154602e+03
2.876310e+03,1.176698e+03
2.887881e+03,1.174411e+03
2.899452e+03,1.191030e+03
2.911022e+03,1.156516e+03
2.922593e+03,1.155640e+03
2.934164e+03,1.133885e+03
2.945735e+03,1.155128e+03
2.957306e+03,1.153577e+03
2.968876e+03,1.120395e+03
2.980447e+03,1.075162e+03
2.992018e+03,1.081509e+03
3.003589e+03,1.071421e+03
3.015160e+03,1.055265e+03
3.026730e+03,1.043118e+03
3.038301e+03,1.037628e+03
3.049872e+03,1.031897e+03
3.061443e+03,1.032569e+03
3.073014e+03,1.030145e+03
3.084584e+03,1.010230e+03
3.096155e+03,1.014762e+03
3.107726e+03,1.042898e+03
3.119297e+03,1.037309e+03
3.130868e+03,1.045109e+03
3.142438e+03,9.960265e+02
3.154009e+03,1.036210e+03
3.165580e+03,1.006271e+03
3.177151e+03,1.009498e+03
3.188722e+03,9.969511e+02
3.200292e+03,1.032193e+03
3.211863e+03,0.000000e+00
3.223434e+03,0.000000e+00
3.235005e+03,0.000000e+00
3.246576e+03,0.000000e+00
3.258146e+03,0.000000e+00
3.269717e+03,0.000000e+00
3.281288e+03,0.000000e+00
3.292859e+03,0.000000e+00
3.304430e+03,0.000000e+00
3.316000e+03,0.000000e+00
3.327571e+03,0.000000e+00
3.339142e+03,0.000000e+00
3.350713e+03,0.000000e+00
3.362284e+03,0.000000e+00
3.373854e+03,0.000000e+00
3.385425e+03,0.000000e+00
3.396996e+03,0.000000e+00
3.408567e+03,0.000000e+00
3.420138e+03,0.000000e+00
3.431708e+03,0.000000e+00
3.443279e+03,0.000000e+00
3.454850e+03,0.000000e+00
3.466421e+03,0.000000e+00
3.477992e+03,0.000000e+00
3.489563e+03,0.000000e+00
3.500169e+03,0.000000e+00