File: RAMAN_data/06022023_r2/blue fibre.CSV
9.931763e+01,0.000000e+00
1.108884e+02,0.000000e+00
1.224592e+02,0.000000e+00
1.340300e+02,0.000000e+00
1.456008e+02,0.000000e+00
1.571716e+02,0.000000e+00
1.687424e+02,0.000000e+00
1.803132e+02,0.000000e+00
1.918840e+02,0.000000e+00
2.034548e+02,4.463838e+03
2.150256e+02,4.467150e+03
2.265964e+02,4.504606e+03
2.381673e+02,4.515974e+03
2.497381e+02,4.533631e+03
2.613088e+02,4.545134e+03
2.728796e+02,4.580481e+03
2.844504e+02,4.591514e+03
2.960212e+02,4.622162e+03
3.075920e+02,4.613783e+03
3.191628e+02,4.626682e+03
3.307336e+02,4.634229e+03
3.423044e+02,4.626083e+03
3.538752e+02,4.634318e+03
3.654461e+02,4.642675e+03
3.770169e+02,4.668295e+03
3.885877e+02,4.633007e+03
4.001585e+02,4.625953e+03
4.117293e+02,4.630489e+03
4.233001e+02,4.609234e+03
4.348709e+02,4.619625e+03
4.464417e+02,4.605696e+03
4.580125e+02,4.595662e+03
4.695833e+02,4.553125e+03
4.811541e+02,4.551692e+03
4.927249e+02,4.544300e+03
5.042957e+02,4.544710e+03
5.158665e+02,4.511479e+03
5.274373e+02,4.510097e+03
5.390081e+02,4.459312e+03
5.505789e+02,4.459405e+03
5.621497e+02,4.439328e+03
5.737205e+02,4.423769e+03
5.852913e+02,4.390909e+03
5.968621e+02,4.390557e+03
6.084329e+02,4.365149e+03
6.200037e+02,4.312625e+03
6.315745e+02,4.303150e+03
6.431453e+02,4.309555e+03
6.547161e+02,4.257315e+03
6.662869e+02,4.237637e+03
6.778577e+02,4.193881e+03
6.894285e+02,4.194299e+03
7.009993e+02,4.151486e+03
7.125701e+02,4.132429e+03
7.241409e+02,4.124634e+03
7.357117e+02,4.103388e+03
7.472825e+02,4.058110e+03
7.588533e+02,4.053020e+03
7.704241e+02,4.004234e+03
7.819949e+02,3.996715e+03
7.935657e+02,3.998380e+03
8.051365e+02,3.937707e+03
8.167073e+02,3.916896e+03
8.282781e+02,3.879473e+03
8.398489e+02,3.873311e+03
8.514197e+02,3.843139e+03
8.629905e+02,3.789981e+03
8.745613e+02,3.780392e+03
8.861321e+02,3.772970e+03
8.977029e+02,3.719140e+03
9.092737e+02,3.699669e+03
9.208445e+02,3.678601e+03
9.324153e+02,3.635973e+03
9.439861e+02,3.609409e+03
9.555569e+02,3.580015e+03
9.671277e+02,3.576671e+03
9.786985e+02,3.536508e+03
9.902693e+02,3.511491e+03
1.001840e+03,3.480164e+03
1.013411e+03,3.460167e+03
1.024982e+03,3.433721e+03
1.036552e+03,3.432075e+03
1.048123e+03,3.399895e+03
1.059694e+03,3.380354e+03
1.071265e+03,3.384696e+03
1.082836e+03,3.375533e+03
1.094406e+03,3.377282e+03
1.105977e+03,3.319249e+03
1.117548e+03,3.326573e+03
1.129119e+03,3.276694e+03
1.140690e+03,3.257266e+03
1.152261e+03,3.255730e+03
1.163831e+03,3.227776e+03
1.175402e+03,3.189830e+03
1.186973e+03,3.163049e+03
1.198544e+03,3.157844e+03
1.210115e+03,3.144699e+03
1.221685e+03,3.102852e+03
1.233256e+03,3.071001e+03
1.244827e+03,3.067712e+03
1.256398e+03,3.043567e+03
1.267969e+03,3.028090e+03
1.279539e+03,3.023317e+03
1.291110e+03,3.025715e+03
1.302681e+03,2.998485e+03
1.314252e+03,2.990346e+03
1.325823e+03,2.983122e+03
1.337393e+03,2.967733e+03
1.348964e+03,2.944619e+03
1.360535e+03,2.905679e+03
1.372106e+03,2.897117e+03
1.383677e+03,2.878479e+03
1.395247e+03,2.844790e+03
1.406818e+03,2.821921e+03
1.418389e+03,2.819219e+03
1.429960e+03,2.804319e+03
1.441531e+03,2.783629e+03
1.453101e+03,2.774105e+03
1.464672e+03,2.737744e+03
1.476243e+03,2.750597e+03
1.487814e+03,2.695556e+03
1.499385e+03,2.704520e+03
1.510955e+03,2.675220e+03
1.522526e+03,2.665255e+03
1.534097e+03,2.638324e+03
1.545668e+03,2.629002e+03
1.557239e+03,2.616347e+03
1.568809e+03,2.603141e+03
1.580380e+03,2.588246e+03
1.591951e+03,2.563101e+03
1.603522e+03,2.560027e+03
1.615093e+03,2.534820e+03
1.626663e+03,2.507468e+03
1.638234e+03,2.464068e+03
1.649805e+03,2.461313e+03
1.661376e+03,2.435813e+03
1.672947e+03,2.408529e+03
1.684517e+03,2.389329e+03
1.696088e+03,2.362763e+03
1.707659e+03,2.366616e+03
1.719230e+03,2.363722e+03
1.730801e+03,2.308039e+03
1.742371e+03,2.304243e+03
1.753942e+03,2.286090e+03
1.765513e+03,2.277898e+03
1.777084e+03,2.247145e+03
1.788655e+03,2.225256e+03
1.800225e+03,2.218906e+03
1.811796e+03,2.194270e+03
1.823367e+03,2.166526e+03
1.834938e+03,2.145938e+03
1.846509e+03,2.123179e+03
1.858079e+03,2.105871e+03
1.869650e+03,2.082453e+03
1.881221e+03,2.057517e+03
1.892792e+03,2.056181e+03
1.904363e+03,2.019066e+03
1.915933e+03,2.006210e+03
1.927504e+03,1.992120e+03
1.939075e+03,1.970269e+03
1.950646e+03,1.932849e+03
1.962217e+03,1.928902e+03
1.973787e+03,1.902866e+03
1.985358e+03,1.883808e+03
1.996929e+03,1.857621e+03
2.008500e+03,1.833330e+03
2.020071e+03,1.813903e+03
2.031641e+03,1.808353e+03
2.043212e+03,1.765962e+03
2.054783e+03,1.785226e+03
2.066354e+03,1.717608e+03
2.077925e+03,1.703876e+03
2.089496e+03,1.696654e+03
2.101066e+03,1.680854e+03
2.112637e+03,1.660514e+03
2.124208e+03,1.635639e+03
2.135779e+03,1.622335e+03
2.147350e+03,1.577344e+03
2.158920e+03,1.570128e+03
2.170491e+03,1.538549e+03
2.182062e+03,1.527209e+03
2.193633e+03,1.524400e+03
2.205204e+03,1.499691e+03
2.216774e+03,1.481804e+03
2.228345e+03,1.447059e+03
2.239916e+03,1.442173e+03
2.251487e+03,1.428622e+03
2.263058e+03,1.404273e+03
2.274628e+03,1.396504e+03
2.286199e+03,1.362220e+03
2.297770e+03,1.353759e+03
2.309341e+03,1.330352e+03
2.320912e+03,1.310230e+03
2.332482e+03,1.295805e+03
2.344053e+03,1.292279e+03
2.355624e+03,1.273089e+03
2.367195e+03,1.246672e+03
2.378766e+03,1.249590e+03
2.390336e+03,1.212418e+03
2.401907e+03,1.215409e+03
2.413478e+03,1.178682e+03
2.425049e+03,1.180357e+03
2.436620e+03,1.160960e+03
2.448190e+03,1.141073e+03
2.459761e+03,1.116626e+03
2.471332e+03,1.125657e+03
2.482903e+03,1.117544e+03
2.494474e+03,1.087373e+03
2.506044e+03,1.076511e+03
2.517615e+03,1.070329e+03
2.529186e+03,1.053075e+03
2.540757e+03,1.034212e+03
2.552328e+03,1.036429e+03
2.563898e+03,1.018104e+03
2.575469e+03,1.010625e+03
2.587040e+03,9.849702e+02
2.598611e+03,9.842458e+02
2.610182e+03,9.734741e+02
2.621752e+03,9.739733e+02
2.633323e+03,9.667572e+02
2.644894e+03,9.550504e+02
2.656465e+03,9.395524e+02
2.668036e+03,9.238661e+02
2.679606e+03,9.179758e+02
2.691177e+03,9.174258e+02
2.702748e+03,9.032843e+02
2.714319e+03,9.017936e+02
2.725890e+03,8.978133e+02
2.737460e+03,8.609186e+02
2.749031e+03,8.738802e+02
2.760602e+03,8.638788e+02
2.772173e+03,8.496931e+02
2.783744e+03,8.564271e+02
2.795314e+03,8.305342e+02
2.806885e+03,8.343731e+02
2.818456e+03,8.310272e+02
2.830027e+03,8.084945e+02
2.841598e+03,8.381882e+02
2.853168e+03,8.338967e+02
2.864739e+03,8.208445e+02
2.876310e+03,7.979564e+02
2.887881e+03,8.254581e+02
2.899452e+03,8.148126e+02
2.911022e+03,8.014784e+02
2.922593e+03,7.892793e+02
2.934164e+03,8.105819e+02
2.945735e+03,7.726323e+02
2.957306e+03,8.309980e+02
2.968876e+03,7.833623e+02
2.980447e+03,7.316214e+02
2.992018e+03,7.404667e+02
3.003589e+03,7.217881e+02
3.015160e+03,7.164172e+02
3.026730e+03,7.278358e+02
3.038301e+03,7.256099e+02
3.049872e+03,7.247153e+02
3.061443e+03,7.022630e+02
3.073014e+03,6.940472e+02
3.084584e+03,7.225519e+02
3.096155e+03,7.266418e+02
3.107726e+03,6.673525e+02
3.119297e+03,6.887991e+02
3.130868e+03,7.119148e+02
3.142438e+03,7.002188e+02
3.154009e+03,7.056354e+02
3.165580e+03,7.138454e+02
3.177151e+03,6.714249e+02
3.188722e+03,7.080455e+02
3.200292e+03,7.126330e+02
3.211863e+03,0.000000e+00
3.223434e+03,0.000000e+00
3.235005e+03,0.000000e+00
3.246576e+03,0.000000e+00
3.258146e+03,0.000000e+00
3.269717e+03,0.000000e+00
3.281288e+03,0.000000e+00
3.292859e+03,0.000000e+00
3.304430e+03,0.000000e+00
3.316000e+03,0.000000e+00
3.327571e+03,0.000000e+00
3.339142e+03,0.000000e+00
3.350713e+03,0.000000e+00
3.362284e+03,0.000000e+00
3.373854e+03,0.000000e+00
3.385425e+03,0.000000e+00
3.396996e+03,0.000000e+00
3.408567e+03,0.000000e+00
3.420138e+03,0.000000e+00
3.431708e+03,0.000000e+00
3.443279e+03,0.000000e+00
3.454850e+03,0.000000e+00
3.466421e+03,0.000000e+00
3.477992e+03,0.000000e+00
3.489563e+03,0.000000e+00
3.500169e+03,0.000000e+00