File: RAMAN_data/06022023_r2/blue fibre3.CSV
9.931763e+01,0.000000e+00
1.108884e+02,0.000000e+00
1.224592e+02,0.000000e+00
1.340300e+02,0.000000e+00
1.456008e+02,0.000000e+00
1.571716e+02,0.000000e+00
1.687424e+02,0.000000e+00
1.803132e+02,0.000000e+00
1.918840e+02,0.000000e+00
2.034548e+02,1.855725e+03
2.150256e+02,1.858919e+03
2.265964e+02,1.844042e+03
2.381673e+02,1.844976e+03
2.497381e+02,1.849531e+03
2.613088e+02,1.827329e+03
2.728796e+02,1.825618e+03
2.844504e+02,1.842002e+03
2.960212e+02,1.832852e+03
3.075920e+02,1.834563e+03
3.191628e+02,1.829742e+03
3.307336e+02,1.833198e+03
3.423044e+02,1.830203e+03
3.538752e+02,1.813854e+03
3.654461e+02,1.814010e+03
3.770169e+02,1.836011e+03
3.885877e+02,1.802275e+03
4.001585e+02,1.797636e+03
4.117293e+02,1.780855e+03
4.233001e+02,1.790946e+03
4.348709e+02,1.792226e+03
4.464417e+02,1.762397e+03
4.580125e+02,1.762804e+03
4.695833e+02,1.755633e+03
4.811541e+02,1.745635e+03
4.927249e+02,1.728281e+03
5.042957e+02,1.718102e+03
5.158665e+02,1.718346e+03
5.274373e+02,1.726217e+03
5.390081e+02,1.705313e+03
5.505789e+02,1.681322e+03
5.621497e+02,1.665843e+03
5.737205e+02,1.661070e+03
5.852913e+02,1.645904e+03
5.968621e+02,1.650302e+03
6.084329e+02,1.636358e+03
6.200037e+02,1.633699e+03
6.315745e+02,1.626964e+03
6.431453e+02,1.613750e+03
6.547161e+02,1.602483e+03
6.662869e+02,1.583895e+03
6.778577e+02,1.576443e+03
6.894285e+02,1.574022e+03
7.009993e+02,1.549648e+03
7.125701e+02,1.549224e+03
7.241409e+02,1.550224e+03
7.357117e+02,1.531934e+03
7.472825e+02,1.536810e+03
7.588533e+02,1.515934e+03
7.704241e+02,1.495303e+03
7.819949e+02,1.496483e+03
7.935657e+02,1.491252e+03
8.051365e+02,1.465766e+03
8.167073e+02,1.474582e+03
8.282781e+02,1.456440e+03
8.398489e+02,1.449581e+03
8.514197e+02,1.441682e+03
8.629905e+02,1.428085e+03
8.745613e+02,1.416211e+03
8.861321e+02,1.438436e+03
8.977029e+02,1.412406e+03
9.092737e+02,1.392240e+03
9.208445e+02,1.385388e+03
9.324153e+02,1.375898e+03
9.439861e+02,1.377102e+03
9.555569e+02,1.352440e+03
9.671277e+02,1.349208e+03
9.786985e+02,1.339507e+03
9.902693e+02,1.336056e+03
1.001840e+03,1.325345e+03
1.013411e+03,1.309276e+03
1.024982e+03,1.311461e+03
1.036552e+03,1.306223e+03
1.048123e+03,1.298104e+03
1.059694e+03,1.300247e+03
1.071265e+03,1.290182e+03
1.082836e+03,1.290896e+03
1.094406e+03,1.324641e+03
1.105977e+03,1.288864e+03
1.117548e+03,1.299833e+03
1.129119e+03,1.281386e+03
1.140690e+03,1.267614e+03
1.152261e+03,1.265840e+03
1.163831e+03,1.249081e+03
1.175402e+03,1.229260e+03
1.186973e+03,1.213035e+03
1.198544e+03,1.204646e+03
1.210115e+03,1.212323e+03
1.221685e+03,1.205942e+03
1.233256e+03,1.183387e+03
1.244827e+03,1.190197e+03
1.256398e+03,1.174987e+03
1.267969e+03,1.166369e+03
1.279539e+03,1.175149e+03
1.291110e+03,1.170230e+03
1.302681e+03,1.167826e+03
1.314252e+03,1.175158e+03
1.325823e+03,1.179659e+03
1.337393e+03,1.169159e+03
1.348964e+03,1.151902e+03
1.360535e+03,1.143701e+03
1.372106e+03,1.145917e+03
1.383677e+03,1.133355e+03
1.395247e+03,1.120222e+03
1.406818e+03,1.115186e+03
1.418389e+03,1.099924e+03
1.429960e+03,1.097579e+03
1.441531e+03,1.083631e+03
1.453101e+03,1.076304e+03
1.464672e+03,1.085203e+03
1.476243e+03,1.080882e+03
1.487814e+03,1.078692e+03
1.499385e+03,1.058912e+03
1.510955e+03,1.045840e+03
1.522526e+03,1.052427e+03
1.534097e+03,1.041842e+03
1.545668e+03,1.032051e+03
1.557239e+03,1.021958e+03
1.568809e+03,1.018922e+03
1.580380e+03,1.012105e+03
1.591951e+03,1.004282e+03
1.603522e+03,1.001979e+03
1.615093e+03,1.008358e+03
1.626663e+03,9.877396e+02
1.638234e+03,9.754183e+02
1.649805e+03,9.642590e+02
1.661376e+03,9.617822e+02
1.672947e+03,9.600168e+02
1.684517e+03,9.452298e+02
1.696088e+03,9.348854e+02
1.707659e+03,9.471937e+02
1.719230e+03,9.343726e+02
1.730801e+03,9.125226e+02
1.742371e+03,9.023610e+02
1.753942e+03,9.002521e+02
1.765513e+03,8.966976e+02
1.777084e+03,8.770165e+02
1.788655e+03,8.697910e+02
1.800225e+03,8.792654e+02
1.811796e+03,8.568767e+02
1.823367e+03,8.559549e+02
1.834938e+03,8.460032e+02
1.846509e+03,8.536481e+02
1.858079e+03,8.333867e+02
1.869650e+03,8.249278e+02
1.881221e+03,8.199503e+02
1.892792e+03,8.189447e+02
1.904363e+03,7.968032e+02
1.915933e+03,7.948444e+02
1.927504e+03,7.865402e+02
1.939075e+03,7.832678e+02
1.950646e+03,7.679081e+02
1.962217e+03,7.590597e+02
1.973787e+03,7.609133e+02
1.985358e+03,7.511044e+02
1.996929e+03,7.460162e+02
2.008500e+03,7.253520e+02
2.020071e+03,7.179753e+02
2.031641e+03,7.122581e+02
2.043212e+03,7.065950e+02
2.054783e+03,7.111315e+02
2.066354e+03,6.967737e+02
2.077925e+03,6.837679e+02
2.089496e+03,6.852277e+02
2.101066e+03,6.737714e+02
2.112637e+03,6.633411e+02
2.124208e+03,6.576662e+02
2.135779e+03,6.461492e+02
2.147350e+03,6.346654e+02
2.158920e+03,6.277546e+02
2.170491e+03,6.367128e+02
2.182062e+03,6.167639e+02
2.193633e+03,6.125040e+02
2.205204e+03,6.078323e+02
2.216774e+03,6.014652e+02
2.228345e+03,5.917823e+02
2.239916e+03,5.936602e+02
2.251487e+03,5.834502e+02
2.263058e+03,5.783697e+02
2.274628e+03,5.629626e+02
2.286199e+03,5.614412e+02
2.297770e+03,5.595775e+02
2.309341e+03,5.450970e+02
2.320912e+03,5.371378e+02
2.332482e+03,5.417809e+02
2.344053e+03,5.333241e+02
2.355624e+03,5.380204e+02
2.367195e+03,5.234301e+02
2.378766e+03,5.104061e+02
2.390336e+03,5.099121e+02
2.401907e+03,5.168353e+02
2.413478e+03,5.056416e+02
2.425049e+03,4.929364e+02
2.436620e+03,4.916163e+02
2.448190e+03,4.798407e+02
2.459761e+03,4.784402e+02
2.471332e+03,4.741868e+02
2.482903e+03,4.713301e+02
2.494474e+03,4.704370e+02
2.506044e+03,4.743795e+02
2.517615e+03,4.645584e+02
2.529186e+03,4.529458e+02
2.540757e+03,4.469839e+02
2.552328e+03,4.496076e+02
2.563898e+03,4.415764e+02
2.575469e+03,4.401364e+02
2.587040e+03,4.327156e+02
2.598611e+03,4.349809e+02
2.610182e+03,4.325618e+02
2.621752e+03,4.278050e+02
2.633323e+03,4.247784e+02
2.644894e+03,4.085338e+02
2.656465e+03,4.183096e+02
2.668036e+03,4.054291e+02
2.679606e+03,4.148542e+02
2.691177e+03,4.035102e+02
2.702748e+03,4.141261e+02
2.714319e+03,3.955452e+02
2.725890e+03,4.004146e+02
2.737460e+03,3.927638e+02
2.749031e+03,3.949508e+02
2.760602e+03,3.857814e+02
2.772173e+03,3.899931e+02
2.783744e+03,3.604336e+02
2.795314e+03,3.665264e+02
2.806885e+03,3.720703e+02
2.818456e+03,3.623329e+02
2.830027e+03,3.698878e+02
2.841598e+03,3.766283e+02
2.853168e+03,3.792601e+02
2.864739e+03,3.775997e+02
2.876310e+03,3.882297e+02
2.887881e+03,3.804989e+02
2.899452e+03,4.088829e+02
2.911022e+03,3.943596e+02
2.922593e+03,3.543810e+02
2.934164e+03,3.641651e+02
2.945735e+03,3.778600e+02
2.957306e+03,4.020867e+02
2.968876e+03,3.667386e+02
2.980447e+03,3.379325e+02
2.992018e+03,3.322155e+02
3.003589e+03,3.274270e+02
3.015160e+03,3.423282e+02
3.026730e+03,3.131524e+02
3.038301e+03,3.188535e+02
3.049872e+03,3.138208e+02
3.061443e+03,3.141497e+02
3.073014e+03,3.209560e+02
3.084584e+03,3.181434e+02
3.096155e+03,3.271499e+02
3.107726e+03,2.980260e+02
3.119297e+03,3.164357e+02
3.130868e+03,3.219667e+02
3.142438e+03,3.378448e+02
3.154009e+03,3.288780e+02
3.165580e+03,3.400953e+02
3.177151e+03,3.015042e+02
3.188722e+03,3.394570e+02
3.200292e+03,3.520628e+02
3.211863e+03,0.000000e+00
3.223434e+03,0.000000e+00
3.235005e+03,0.000000e+00
3.246576e+03,0.000000e+00
3.258146e+03,0.000000e+00
3.269717e+03,0.000000e+00
3.281288e+03,0.000000e+00
3.292859e+03,0.000000e+00
3.304430e+03,0.000000e+00
3.316000e+03,0.000000e+00
3.327571e+03,0.000000e+00
3.339142e+03,0.000000e+00
3.350713e+03,0.000000e+00
3.362284e+03,0.000000e+00
3.373854e+03,0.000000e+00
3.385425e+03,0.000000e+00
3.396996e+03,0.000000e+00
3.408567e+03,0.000000e+00
3.420138e+03,0.000000e+00
3.431708e+03,0.000000e+00
3.443279e+03,0.000000e+00
3.454850e+03,0.000000e+00
3.466421e+03,0.000000e+00
3.477992e+03,0.000000e+00
3.489563e+03,0.000000e+00
3.500169e+03,0.000000e+00