File: RAMAN_data/06022023_r2/blue fibre4.CSV
9.931763e+01,0.000000e+00
1.108884e+02,0.000000e+00
1.224592e+02,0.000000e+00
1.340300e+02,0.000000e+00
1.456008e+02,0.000000e+00
1.571716e+02,0.000000e+00
1.687424e+02,0.000000e+00
1.803132e+02,0.000000e+00
1.918840e+02,0.000000e+00
2.034548e+02,4.052792e+03
2.150256e+02,4.072547e+03
2.265964e+02,4.090398e+03
2.381673e+02,4.128150e+03
2.497381e+02,4.158381e+03
2.613088e+02,4.162732e+03
2.728796e+02,4.203695e+03
2.844504e+02,4.244678e+03
2.960212e+02,4.232540e+03
3.075920e+02,4.264881e+03
3.191628e+02,4.265648e+03
3.307336e+02,4.293706e+03
3.423044e+02,4.286967e+03
3.538752e+02,4.313053e+03
3.654461e+02,4.317912e+03
3.770169e+02,4.355846e+03
3.885877e+02,4.352568e+03
4.001585e+02,4.337506e+03
4.117293e+02,4.363508e+03
4.233001e+02,4.351162e+03
4.348709e+02,4.379826e+03
4.464417e+02,4.352474e+03
4.580125e+02,4.376601e+03
4.695833e+02,4.340985e+03
4.811541e+02,4.381265e+03
4.927249e+02,4.403212e+03
5.042957e+02,4.378390e+03
5.158665e+02,4.379931e+03
5.274373e+02,4.345753e+03
5.390081e+02,4.327194e+03
5.505789e+02,4.315787e+03
5.621497e+02,4.342604e+03
5.737205e+02,4.323138e+03
5.852913e+02,4.292479e+03
5.968621e+02,4.318563e+03
6.084329e+02,4.319798e+03
6.200037e+02,4.316264e+03
6.315745e+02,4.285144e+03
6.431453e+02,4.256922e+03
6.547161e+02,4.274373e+03
6.662869e+02,4.237506e+03
6.778577e+02,4.222551e+03
6.894285e+02,4.185322e+03
7.009993e+02,4.216014e+03
7.125701e+02,4.192964e+03
7.241409e+02,4.148159e+03
7.357117e+02,4.140388e+03
7.472825e+02,4.143750e+03
7.588533e+02,4.097877e+03
7.704241e+02,4.068909e+03
7.819949e+02,4.069052e+03
7.935657e+02,4.063661e+03
8.051365e+02,4.045226e+03
8.167073e+02,4.004992e+03
8.282781e+02,3.997853e+03
8.398489e+02,3.997984e+03
8.514197e+02,3.983717e+03
8.629905e+02,3.950751e+03
8.745613e+02,3.905564e+03
8.861321e+02,3.921820e+03
8.977029e+02,3.891008e+03
9.092737e+02,3.870880e+03
9.208445e+02,3.821534e+03
9.324153e+02,3.794870e+03
9.439861e+02,3.794402e+03
9.555569e+02,3.770351e+03
9.671277e+02,3.749784e+03
9.786985e+02,3.710898e+03
9.902693e+02,3.692287e+03
1.001840e+03,3.684352e+03
1.013411e+03,3.644522e+03
1.024982e+03,3.639358e+03
1.036552e+03,3.616414e+03
1.048123e+03,3.602387e+03
1.059694e+03,3.590024e+03
1.071265e+03,3.550429e+03
1.082836e+03,3.560485e+03
1.094406e+03,3.540785e+03
1.105977e+03,3.527111e+03
1.117548e+03,3.534992e+03
1.129119e+03,3.532819e+03
1.140690e+03,3.505436e+03
1.152261e+03,3.508011e+03
1.163831e+03,3.454549e+03
1.175402e+03,3.415385e+03
1.186973e+03,3.392969e+03
1.198544e+03,3.389868e+03
1.210115e+03,3.349013e+03
1.221685e+03,3.331239e+03
1.233256e+03,3.283224e+03
1.244827e+03,3.293628e+03
1.256398e+03,3.249832e+03
1.267969e+03,3.250934e+03
1.279539e+03,3.265224e+03
1.291110e+03,3.233041e+03
1.302681e+03,3.192770e+03
1.314252e+03,3.163026e+03
1.325823e+03,3.160280e+03
1.337393e+03,3.172771e+03
1.348964e+03,3.156709e+03
1.360535e+03,3.127480e+03
1.372106e+03,3.080814e+03
1.383677e+03,3.068272e+03
1.395247e+03,3.029381e+03
1.406818e+03,3.010593e+03
1.418389e+03,3.002881e+03
1.429960e+03,2.969744e+03
1.441531e+03,2.932138e+03
1.453101e+03,2.921622e+03
1.464672e+03,2.906678e+03
1.476243e+03,2.888805e+03
1.487814e+03,2.879707e+03
1.499385e+03,2.851910e+03
1.510955e+03,2.827071e+03
1.522526e+03,2.826572e+03
1.534097e+03,2.806279e+03
1.545668e+03,2.781163e+03
1.557239e+03,2.771031e+03
1.568809e+03,2.773263e+03
1.580380e+03,2.750121e+03
1.591951e+03,2.739004e+03
1.603522e+03,2.699707e+03
1.615093e+03,2.703636e+03
1.626663e+03,2.635927e+03
1.638234e+03,2.619320e+03
1.649805e+03,2.608813e+03
1.661376e+03,2.586322e+03
1.672947e+03,2.547048e+03
1.684517e+03,2.530847e+03
1.696088e+03,2.522892e+03
1.707659e+03,2.503895e+03
1.719230e+03,2.490609e+03
1.730801e+03,2.494869e+03
1.742371e+03,2.453205e+03
1.753942e+03,2.417640e+03
1.765513e+03,2.414309e+03
1.777084e+03,2.396009e+03
1.788655e+03,2.344661e+03
1.800225e+03,2.355487e+03
1.811796e+03,2.323797e+03
1.823367e+03,2.321527e+03
1.834938e+03,2.284047e+03
1.846509e+03,2.276995e+03
1.858079e+03,2.237007e+03
1.869650e+03,2.211066e+03
1.881221e+03,2.188536e+03
1.892792e+03,2.166325e+03
1.904363e+03,2.156248e+03
1.915933e+03,2.150075e+03
1.927504e+03,2.113439e+03
1.939075e+03,2.099066e+03
1.950646e+03,2.081436e+03
1.962217e+03,2.063027e+03
1.973787e+03,2.058977e+03
1.985358e+03,2.008210e+03
1.996929e+03,1.987920e+03
2.008500e+03,1.963729e+03
2.020071e+03,1.957383e+03
2.031641e+03,1.925855e+03
2.043212e+03,1.895518e+03
2.054783e+03,1.881220e+03
2.066354e+03,1.873903e+03
2.077925e+03,1.828224e+03
2.089496e+03,1.823613e+03
2.101066e+03,1.815767e+03
2.112637e+03,1.777674e+03
2.124208e+03,1.778145e+03
2.135779e+03,1.738535e+03
2.147350e+03,1.724446e+03
2.158920e+03,1.700274e+03
2.170491e+03,1.683306e+03
2.182062e+03,1.663925e+03
2.193633e+03,1.642959e+03
2.205204e+03,1.642892e+03
2.216774e+03,1.626625e+03
2.228345e+03,1.600606e+03
2.239916e+03,1.561632e+03
2.251487e+03,1.559654e+03
2.263058e+03,1.544844e+03
2.274628e+03,1.498768e+03
2.286199e+03,1.493020e+03
2.297770e+03,1.507102e+03
2.309341e+03,1.457298e+03
2.320912e+03,1.453909e+03
2.332482e+03,1.410991e+03
2.344053e+03,1.424160e+03
2.355624e+03,1.397925e+03
2.367195e+03,1.363557e+03
2.378766e+03,1.362042e+03
2.390336e+03,1.341653e+03
2.401907e+03,1.334674e+03
2.413478e+03,1.303306e+03
2.425049e+03,1.278603e+03
2.436620e+03,1.286066e+03
2.448190e+03,1.274486e+03
2.459761e+03,1.245540e+03
2.471332e+03,1.237160e+03
2.482903e+03,1.226462e+03
2.494474e+03,1.198242e+03
2.506044e+03,1.204182e+03
2.517615e+03,1.193731e+03
2.529186e+03,1.161317e+03
2.540757e+03,1.147779e+03
2.552328e+03,1.156565e+03
2.563898e+03,1.138346e+03
2.575469e+03,1.126992e+03
2.587040e+03,1.102719e+03
2.598611e+03,1.080844e+03
2.610182e+03,1.087890e+03
2.621752e+03,1.058549e+03
2.633323e+03,1.061496e+03
2.644894e+03,1.025670e+03
2.656465e+03,1.047724e+03
2.668036e+03,1.028848e+03
2.679606e+03,1.009693e+03
2.691177e+03,1.014802e+03
2.702748e+03,1.005481e+03
2.714319e+03,9.952144e+02
2.725890e+03,9.879039e+02
2.737460e+03,9.608041e+02
2.749031e+03,9.621385e+02
2.760602e+03,9.325856e+02
2.772173e+03,9.274446e+02
2.783744e+03,9.359345e+02
2.795314e+03,9.171708e+02
2.806885e+03,9.127550e+02
2.818456e+03,9.030217e+02
2.830027e+03,8.819742e+02
2.841598e+03,8.904240e+02
2.853168e+03,9.092772e+02
2.864739e+03,8.785501e+02
2.876310e+03,9.022645e+02
2.887881e+03,9.106617e+02
2.899452e+03,8.892059e+02
2.911022e+03,8.911895e+02
2.922593e+03,8.367151e+02
2.934164e+03,8.486254e+02
2.945735e+03,8.449905e+02
2.957306e+03,8.849046e+02
2.968876e+03,8.341523e+02
2.980447e+03,7.922015e+02
2.992018e+03,8.040327e+02
3.003589e+03,7.948310e+02
3.015160e+03,7.753762e+02
3.026730e+03,7.707201e+02
3.038301e+03,8.140012e+02
3.049872e+03,7.832752e+02
3.061443e+03,7.704212e+02
3.073014e+03,7.557670e+02
3.084584e+03,7.512546e+02
3.096155e+03,7.353826e+02
3.107726e+03,7.936637e+02
3.119297e+03,7.736243e+02
3.130868e+03,8.003073e+02
3.142438e+03,7.583855e+02
3.154009e+03,7.466925e+02
3.165580e+03,7.568998e+02
3.177151e+03,7.422745e+02
3.188722e+03,7.691182e+02
3.200292e+03,7.586008e+02
3.211863e+03,0.000000e+00
3.223434e+03,0.000000e+00
3.235005e+03,0.000000e+00
3.246576e+03,0.000000e+00
3.258146e+03,0.000000e+00
3.269717e+03,0.000000e+00
3.281288e+03,0.000000e+00
3.292859e+03,0.000000e+00
3.304430e+03,0.000000e+00
3.316000e+03,0.000000e+00
3.327571e+03,0.000000e+00
3.339142e+03,0.000000e+00
3.350713e+03,0.000000e+00
3.362284e+03,0.000000e+00
3.373854e+03,0.000000e+00
3.385425e+03,0.000000e+00
3.396996e+03,0.000000e+00
3.408567e+03,0.000000e+00
3.420138e+03,0.000000e+00
3.431708e+03,0.000000e+00
3.443279e+03,0.000000e+00
3.454850e+03,0.000000e+00
3.466421e+03,0.000000e+00
3.477992e+03,0.000000e+00
3.489563e+03,0.000000e+00
3.500169e+03,0.000000e+00