File: RAMAN_data/06022023_r2/blue fibre2.CSV
9.931763e+01,0.000000e+00
1.108884e+02,0.000000e+00
1.224592e+02,0.000000e+00
1.340300e+02,0.000000e+00
1.456008e+02,0.000000e+00
1.571716e+02,0.000000e+00
1.687424e+02,0.000000e+00
1.803132e+02,0.000000e+00
1.918840e+02,0.000000e+00
2.034548e+02,2.032616e+03
2.150256e+02,2.035187e+03
2.265964e+02,2.049426e+03
2.381673e+02,2.069355e+03
2.497381e+02,2.066588e+03
2.613088e+02,2.095126e+03
2.728796e+02,2.100946e+03
2.844504e+02,2.106032e+03
2.960212e+02,2.101345e+03
3.075920e+02,2.118088e+03
3.191628e+02,2.127321e+03
3.307336e+02,2.144660e+03
3.423044e+02,2.135728e+03
3.538752e+02,2.131893e+03
3.654461e+02,2.129907e+03
3.770169e+02,2.168737e+03
3.885877e+02,2.152996e+03
4.001585e+02,2.154298e+03
4.117293e+02,2.141783e+03
4.233001e+02,2.144281e+03
4.348709e+02,2.174424e+03
4.464417e+02,2.168508e+03
4.580125e+02,2.169657e+03
4.695833e+02,2.152956e+03
4.811541e+02,2.163866e+03
4.927249e+02,2.170417e+03
5.042957e+02,2.144379e+03
5.158665e+02,2.164023e+03
5.274373e+02,2.129359e+03
5.390081e+02,2.120310e+03
5.505789e+02,2.115915e+03
5.621497e+02,2.129816e+03
5.737205e+02,2.109716e+03
5.852913e+02,2.110897e+03
5.968621e+02,2.105065e+03
6.084329e+02,2.111592e+03
6.200037e+02,2.093191e+03
6.315745e+02,2.087718e+03
6.431453e+02,2.089773e+03
6.547161e+02,2.069036e+03
6.662869e+02,2.054227e+03
6.778577e+02,2.038384e+03
6.894285e+02,2.039456e+03
7.009993e+02,2.041408e+03
7.125701e+02,2.037975e+03
7.241409e+02,2.021172e+03
7.357117e+02,2.020918e+03
7.472825e+02,2.015595e+03
7.588533e+02,1.992227e+03
7.704241e+02,1.984771e+03
7.819949e+02,1.968479e+03
7.935657e+02,1.967222e+03
8.051365e+02,1.950830e+03
8.167073e+02,1.950176e+03
8.282781e+02,1.955771e+03
8.398489e+02,1.939798e+03
8.514197e+02,1.917055e+03
8.629905e+02,1.913178e+03
8.745613e+02,1.897627e+03
8.861321e+02,1.898755e+03
8.977029e+02,1.898392e+03
9.092737e+02,1.868486e+03
9.208445e+02,1.842049e+03
9.324153e+02,1.851708e+03
9.439861e+02,1.829356e+03
9.555569e+02,1.822229e+03
9.671277e+02,1.818551e+03
9.786985e+02,1.804763e+03
9.902693e+02,1.793720e+03
1.001840e+03,1.787941e+03
1.013411e+03,1.779605e+03
1.024982e+03,1.765803e+03
1.036552e+03,1.748750e+03
1.048123e+03,1.751476e+03
1.059694e+03,1.745223e+03
1.071265e+03,1.728766e+03
1.082836e+03,1.740642e+03
1.094406e+03,1.749567e+03
1.105977e+03,1.727129e+03
1.117548e+03,1.745149e+03
1.129119e+03,1.723209e+03
1.140690e+03,1.697073e+03
1.152261e+03,1.706961e+03
1.163831e+03,1.654611e+03
1.175402e+03,1.642265e+03
1.186973e+03,1.631427e+03
1.198544e+03,1.625186e+03
1.210115e+03,1.624299e+03
1.221685e+03,1.600967e+03
1.233256e+03,1.589727e+03
1.244827e+03,1.581992e+03
1.256398e+03,1.566526e+03
1.267969e+03,1.573936e+03
1.279539e+03,1.588278e+03
1.291110e+03,1.567976e+03
1.302681e+03,1.546365e+03
1.314252e+03,1.536004e+03
1.325823e+03,1.530707e+03
1.337393e+03,1.544925e+03
1.348964e+03,1.536820e+03
1.360535e+03,1.497993e+03
1.372106e+03,1.509062e+03
1.383677e+03,1.488257e+03
1.395247e+03,1.461232e+03
1.406818e+03,1.452088e+03
1.418389e+03,1.444083e+03
1.429960e+03,1.420466e+03
1.441531e+03,1.402994e+03
1.453101e+03,1.394449e+03
1.464672e+03,1.395166e+03
1.476243e+03,1.383500e+03
1.487814e+03,1.379558e+03
1.499385e+03,1.357455e+03
1.510955e+03,1.351191e+03
1.522526e+03,1.340094e+03
1.534097e+03,1.323566e+03
1.545668e+03,1.320908e+03
1.557239e+03,1.332131e+03
1.568809e+03,1.332489e+03
1.580380e+03,1.326438e+03
1.591951e+03,1.319005e+03
1.603522e+03,1.283709e+03
1.615093e+03,1.284724e+03
1.626663e+03,1.255523e+03
1.638234e+03,1.249394e+03
1.649805e+03,1.244779e+03
1.661376e+03,1.231965e+03
1.672947e+03,1.221747e+03
1.684517e+03,1.211179e+03
1.696088e+03,1.191379e+03
1.707659e+03,1.195171e+03
1.719230e+03,1.188610e+03
1.730801e+03,1.176503e+03
1.742371e+03,1.158434e+03
1.753942e+03,1.157978e+03
1.765513e+03,1.135523e+03
1.777084e+03,1.140457e+03
1.788655e+03,1.127649e+03
1.800225e+03,1.120497e+03
1.811796e+03,1.118401e+03
1.823367e+03,1.097444e+03
1.834938e+03,1.090627e+03
1.846509e+03,1.085508e+03
1.858079e+03,1.068114e+03
1.869650e+03,1.067457e+03
1.881221e+03,1.048821e+03
1.892792e+03,1.050378e+03
1.904363e+03,1.029738e+03
1.915933e+03,1.019678e+03
1.927504e+03,1.002693e+03
1.939075e+03,9.948358e+02
1.950646e+03,9.993284e+02
1.962217e+03,9.731411e+02
1.973787e+03,9.717453e+02
1.985358e+03,9.602471e+02
1.996929e+03,9.521671e+02
2.008500e+03,9.348788e+02
2.020071e+03,9.248215e+02
2.031641e+03,9.165828e+02
2.043212e+03,9.078942e+02
2.054783e+03,8.966271e+02
2.066354e+03,8.865032e+02
2.077925e+03,8.716047e+02
2.089496e+03,8.742805e+02
2.101066e+03,8.485339e+02
2.112637e+03,8.466611e+02
2.124208e+03,8.480371e+02
2.135779e+03,8.286541e+02
2.147350e+03,8.027382e+02
2.158920e+03,8.071851e+02
2.170491e+03,8.104267e+02
2.182062e+03,7.885670e+02
2.193633e+03,7.770908e+02
2.205204e+03,7.777747e+02
2.216774e+03,7.714010e+02
2.228345e+03,7.500929e+02
2.239916e+03,7.529648e+02
2.251487e+03,7.239920e+02
2.263058e+03,7.342812e+02
2.274628e+03,7.213728e+02
2.286199e+03,6.958012e+02
2.297770e+03,7.092159e+02
2.309341e+03,6.827272e+02
2.320912e+03,6.820643e+02
2.332482e+03,6.773711e+02
2.344053e+03,6.626630e+02
2.355624e+03,6.603447e+02
2.367195e+03,6.396194e+02
2.378766e+03,6.481332e+02
2.390336e+03,6.368845e+02
2.401907e+03,6.291232e+02
2.413478e+03,6.151400e+02
2.425049e+03,6.035275e+02
2.436620e+03,6.061744e+02
2.448190e+03,5.992338e+02
2.459761e+03,5.914894e+02
2.471332e+03,5.776571e+02
2.482903e+03,5.744492e+02
2.494474e+03,5.610413e+02
2.506044e+03,5.651918e+02
2.517615e+03,5.661699e+02
2.529186e+03,5.518332e+02
2.540757e+03,5.304245e+02
2.552328e+03,5.475333e+02
2.563898e+03,5.393694e+02
2.575469e+03,5.378594e+02
2.587040e+03,5.130046e+02
2.598611e+03,5.077175e+02
2.610182e+03,5.171647e+02
2.621752e+03,5.124652e+02
2.633323e+03,5.087176e+02
2.644894e+03,5.072219e+02
2.656465e+03,4.879703e+02
2.668036e+03,4.788676e+02
2.679606e+03,4.807401e+02
2.691177e+03,4.756858e+02
2.702748e+03,4.681322e+02
2.714319e+03,4.777716e+02
2.725890e+03,4.580793e+02
2.737460e+03,4.582198e+02
2.749031e+03,4.525178e+02
2.760602e+03,4.427460e+02
2.772173e+03,4.550396e+02
2.783744e+03,4.476152e+02
2.795314e+03,4.405147e+02
2.806885e+03,4.182867e+02
2.818456e+03,4.152842e+02
2.830027e+03,4.223033e+02
2.841598e+03,4.379851e+02
2.853168e+03,4.382296e+02
2.864739e+03,4.381705e+02
2.876310e+03,4.198817e+02
2.887881e+03,4.722236e+02
2.899452e+03,4.598674e+02
2.911022e+03,4.419249e+02
2.922593e+03,4.162509e+02
2.934164e+03,4.321284e+02
2.945735e+03,4.173653e+02
2.957306e+03,4.248443e+02
2.968876e+03,3.999775e+02
2.980447e+03,3.982851e+02
2.992018e+03,3.959156e+02
3.003589e+03,3.707482e+02
3.015160e+03,3.722856e+02
3.026730e+03,3.700706e+02
3.038301e+03,3.756403e+02
3.049872e+03,3.547870e+02
3.061443e+03,3.457310e+02
3.073014e+03,3.578476e+02
3.084584e+03,3.602871e+02
3.096155e+03,3.492657e+02
3.107726e+03,3.650794e+02
3.119297e+03,3.633899e+02
3.130868e+03,3.550871e+02
3.142438e+03,3.841518e+02
3.154009e+03,3.755953e+02
3.165580e+03,3.378357e+02
3.177151e+03,3.513150e+02
3.188722e+03,3.573042e+02
3.200292e+03,3.876109e+02
3.211863e+03,0.000000e+00
3.223434e+03,0.000000e+00
3.235005e+03,0.000000e+00
3.246576e+03,0.000000e+00
3.258146e+03,0.000000e+00
3.269717e+03,0.000000e+00
3.281288e+03,0.000000e+00
3.292859e+03,0.000000e+00
3.304430e+03,0.000000e+00
3.316000e+03,0.000000e+00
3.327571e+03,0.000000e+00
3.339142e+03,0.000000e+00
3.350713e+03,0.000000e+00
3.362284e+03,0.000000e+00
3.373854e+03,0.000000e+00
3.385425e+03,0.000000e+00
3.396996e+03,0.000000e+00
3.408567e+03,0.000000e+00
3.420138e+03,0.000000e+00
3.431708e+03,0.000000e+00
3.443279e+03,0.000000e+00
3.454850e+03,0.000000e+00
3.466421e+03,0.000000e+00
3.477992e+03,0.000000e+00
3.489563e+03,0.000000e+00
3.500169e+03,0.000000e+00