File: RAMAN_data/06022023_r2/clear fibre.CSV
9.931763e+01,0.000000e+00
1.108884e+02,0.000000e+00
1.224592e+02,0.000000e+00
1.340300e+02,0.000000e+00
1.456008e+02,0.000000e+00
1.571716e+02,0.000000e+00
1.687424e+02,0.000000e+00
1.803132e+02,0.000000e+00
1.918840e+02,0.000000e+00
2.034548e+02,1.051899e+04
2.150256e+02,1.057905e+04
2.265964e+02,1.068651e+04
2.381673e+02,1.083713e+04
2.497381e+02,1.092278e+04
2.613088e+02,1.101875e+04
2.728796e+02,1.114345e+04
2.844504e+02,1.128443e+04
2.960212e+02,1.138987e+04
3.075920e+02,1.148845e+04
3.191628e+02,1.160775e+04
3.307336e+02,1.175910e+04
3.423044e+02,1.188976e+04
3.538752e+02,1.203829e+04
3.654461e+02,1.215099e+04
3.770169e+02,1.231110e+04
3.885877e+02,1.246675e+04
4.001585e+02,1.259455e+04
4.117293e+02,1.274362e+04
4.233001e+02,1.288550e+04
4.348709e+02,1.304495e+04
4.464417e+02,1.321596e+04
4.580125e+02,1.333318e+04
4.695833e+02,1.347341e+04
4.811541e+02,1.360224e+04
4.927249e+02,1.374474e+04
5.042957e+02,1.387491e+04
5.158665e+02,1.399692e+04
5.274373e+02,1.410203e+04
5.390081e+02,1.416972e+04
5.505789e+02,1.428556e+04
5.621497e+02,1.439837e+04
5.737205e+02,1.446632e+04
5.852913e+02,1.457575e+04
5.968621e+02,1.471280e+04
6.084329e+02,1.480358e+04
6.200037e+02,1.484330e+04
6.315745e+02,1.490827e+04
6.431453e+02,1.500741e+04
6.547161e+02,1.510578e+04
6.662869e+02,1.514584e+04
6.778577e+02,1.514799e+04
6.894285e+02,1.519395e+04
7.009993e+02,1.527256e+04
7.125701e+02,1.527661e+04
7.241409e+02,1.525324e+04
7.357117e+02,1.511352e+04
7.472825e+02,1.491204e+04
7.588533e+02,1.472877e+04
7.704241e+02,1.449023e+04
7.819949e+02,1.428774e+04
7.935657e+02,1.408860e+04
8.051365e+02,1.393080e+04
8.167073e+02,1.369979e+04
8.282781e+02,1.354767e+04
8.398489e+02,1.341003e+04
8.514197e+02,1.318533e+04
8.629905e+02,1.309393e+04
8.745613e+02,1.288821e+04
8.861321e+02,1.273605e+04
8.977029e+02,1.256456e+04
9.092737e+02,1.242133e+04
9.208445e+02,1.227086e+04
9.324153e+02,1.216299e+04
9.439861e+02,1.199269e+04
9.555569e+02,1.184303e+04
9.671277e+02,1.177685e+04
9.786985e+02,1.169163e+04
9.902693e+02,1.155284e+04
1.001840e+03,1.145672e+04
1.013411e+03,1.139001e+04
1.024982e+03,1.129915e+04
1.036552e+03,1.123220e+04
1.048123e+03,1.113764e+04
1.059694e+03,1.105350e+04
1.071265e+03,1.100808e+04
1.082836e+03,1.093568e+04
1.094406e+03,1.088701e+04
1.105977e+03,1.081055e+04
1.117548e+03,1.079860e+04
1.129119e+03,1.072992e+04
1.140690e+03,1.067531e+04
1.152261e+03,1.063992e+04
1.163831e+03,1.062238e+04
1.175402e+03,1.056454e+04
1.186973e+03,1.055880e+04
1.198544e+03,1.060100e+04
1.210115e+03,1.057622e+04
1.221685e+03,1.057344e+04
1.233256e+03,1.048774e+04
1.244827e+03,1.051015e+04
1.256398e+03,1.052002e+04
1.267969e+03,1.049325e+04
1.279539e+03,1.054215e+04
1.291110e+03,1.055904e+04
1.302681e+03,1.051934e+04
1.314252e+03,1.050397e+04
1.325823e+03,1.057562e+04
1.337393e+03,1.058794e+04
1.348964e+03,1.058252e+04
1.360535e+03,1.058107e+04
1.372106e+03,1.063192e+04
1.383677e+03,1.064393e+04
1.395247e+03,1.058320e+04
1.406818e+03,1.061023e+04
1.418389e+03,1.059278e+04
1.429960e+03,1.058075e+04
1.441531e+03,1.059273e+04
1.453101e+03,1.058798e+04
1.464672e+03,1.057003e+04
1.476243e+03,1.055273e+04
1.487814e+03,1.056102e+04
1.499385e+03,1.049335e+04
1.510955e+03,1.049987e+04
1.522526e+03,1.047631e+04
1.534097e+03,1.042464e+04
1.545668e+03,1.041444e+04
1.557239e+03,1.044265e+04
1.568809e+03,1.044667e+04
1.580380e+03,1.036593e+04
1.591951e+03,1.032046e+04
1.603522e+03,1.026850e+04
1.615093e+03,1.021530e+04
1.626663e+03,1.011638e+04
1.638234e+03,1.006286e+04
1.649805e+03,9.970402e+03
1.661376e+03,9.923442e+03
1.672947e+03,9.849151e+03
1.684517e+03,9.741107e+03
1.696088e+03,9.701203e+03
1.707659e+03,9.628228e+03
1.719230e+03,9.524493e+03
1.730801e+03,9.469360e+03
1.742371e+03,9.373556e+03
1.753942e+03,9.299116e+03
1.765513e+03,9.166573e+03
1.777084e+03,9.034554e+03
1.788655e+03,8.962192e+03
1.800225e+03,8.862842e+03
1.811796e+03,8.761062e+03
1.823367e+03,8.621049e+03
1.834938e+03,8.519452e+03
1.846509e+03,8.397162e+03
1.858079e+03,8.308396e+03
1.869650e+03,8.141539e+03
1.881221e+03,8.064478e+03
1.892792e+03,7.953413e+03
1.904363e+03,7.866052e+03
1.915933e+03,7.717418e+03
1.927504e+03,7.643054e+03
1.939075e+03,7.496652e+03
1.950646e+03,7.396745e+03
1.962217e+03,7.285119e+03
1.973787e+03,7.166590e+03
1.985358e+03,7.072662e+03
1.996929e+03,6.943925e+03
2.008500e+03,6.826071e+03
2.020071e+03,6.670393e+03
2.031641e+03,6.543740e+03
2.043212e+03,6.438337e+03
2.054783e+03,6.332673e+03
2.066354e+03,6.244161e+03
2.077925e+03,6.130996e+03
2.089496e+03,6.014367e+03
2.101066e+03,5.907072e+03
2.112637e+03,5.849644e+03
2.124208e+03,5.748391e+03
2.135779e+03,5.596102e+03
2.147350e+03,5.511461e+03
2.158920e+03,5.412057e+03
2.170491e+03,5.328306e+03
2.182062e+03,5.221691e+03
2.193633e+03,5.134403e+03
2.205204e+03,5.084401e+03
2.216774e+03,4.973019e+03
2.228345e+03,4.858405e+03
2.239916e+03,4.792653e+03
2.251487e+03,4.713286e+03
2.263058e+03,4.638636e+03
2.274628e+03,4.537817e+03
2.286199e+03,4.490282e+03
2.297770e+03,4.458905e+03
2.309341e+03,4.356862e+03
2.320912e+03,4.303518e+03
2.332482e+03,4.218279e+03
2.344053e+03,4.146271e+03
2.355624e+03,4.098149e+03
2.367195e+03,4.009873e+03
2.378766e+03,3.986310e+03
2.390336e+03,3.933467e+03
2.401907e+03,3.871990e+03
2.413478e+03,3.780547e+03
2.425049e+03,3.769625e+03
2.436620e+03,3.725289e+03
2.448190e+03,3.663126e+03
2.459761e+03,3.613443e+03
2.471332e+03,3.556894e+03
2.482903e+03,3.553295e+03
2.494474e+03,3.516357e+03
2.506044e+03,3.450012e+03
2.517615e+03,3.453266e+03
2.529186e+03,3.435790e+03
2.540757e+03,3.391616e+03
2.552328e+03,3.344882e+03
2.563898e+03,3.346929e+03
2.575469e+03,3.297871e+03
2.587040e+03,3.239058e+03
2.598611e+03,3.253218e+03
2.610182e+03,3.198615e+03
2.621752e+03,3.166057e+03
2.633323e+03,3.128683e+03
2.644894e+03,3.092884e+03
2.656465e+03,3.093948e+03
2.668036e+03,3.072952e+03
2.679606e+03,3.026516e+03
2.691177e+03,3.060185e+03
2.702748e+03,3.004332e+03
2.714319e+03,3.000476e+03
2.725890e+03,2.966438e+03
2.737460e+03,2.962899e+03
2.749031e+03,2.984791e+03
2.760602e+03,2.906763e+03
2.772173e+03,2.914586e+03
2.783744e+03,2.870224e+03
2.795314e+03,2.843761e+03
2.806885e+03,2.842591e+03
2.818456e+03,2.818766e+03
2.830027e+03,2.790951e+03
2.841598e+03,2.799294e+03
2.853168e+03,2.817247e+03
2.864739e+03,2.773917e+03
2.876310e+03,2.828887e+03
2.887881e+03,2.812706e+03
2.899452e+03,2.757751e+03
2.911022e+03,2.745328e+03
2.922593e+03,2.697737e+03
2.934164e+03,2.691939e+03
2.945735e+03,2.664333e+03
2.957306e+03,2.725420e+03
2.968876e+03,2.658817e+03
2.980447e+03,2.632570e+03
2.992018e+03,2.643490e+03
3.003589e+03,2.602281e+03
3.015160e+03,2.580758e+03
3.026730e+03,2.559511e+03
3.038301e+03,2.561143e+03
3.049872e+03,2.578021e+03
3.061443e+03,2.540135e+03
3.073014e+03,2.555483e+03
3.084584e+03,2.507208e+03
3.096155e+03,2.484990e+03
3.107726e+03,2.483643e+03
3.119297e+03,2.495056e+03
3.130868e+03,2.540138e+03
3.142438e+03,2.449065e+03
3.154009e+03,2.513949e+03
3.165580e+03,2.512450e+03
3.177151e+03,2.506364e+03
3.188722e+03,2.442897e+03
3.200292e+03,2.514688e+03
3.211863e+03,0.000000e+00
3.223434e+03,0.000000e+00
3.235005e+03,0.000000e+00
3.246576e+03,0.000000e+00
3.258146e+03,0.000000e+00
3.269717e+03,0.000000e+00
3.281288e+03,0.000000e+00
3.292859e+03,0.000000e+00
3.304430e+03,0.000000e+00
3.316000e+03,0.000000e+00
3.327571e+03,0.000000e+00
3.339142e+03,0.000000e+00
3.350713e+03,0.000000e+00
3.362284e+03,0.000000e+00
3.373854e+03,0.000000e+00
3.385425e+03,0.000000e+00
3.396996e+03,0.000000e+00
3.408567e+03,0.000000e+00
3.420138e+03,0.000000e+00
3.431708e+03,0.000000e+00
3.443279e+03,0.000000e+00
3.454850e+03,0.000000e+00
3.466421e+03,0.000000e+00
3.477992e+03,0.000000e+00
3.489563e+03,0.000000e+00
3.500169e+03,0.000000e+00