File: RAMAN_data/06022023_r2/clear frag.CSV
9.931763e+01,0.000000e+00
1.108884e+02,0.000000e+00
1.224592e+02,0.000000e+00
1.340300e+02,0.000000e+00
1.456008e+02,0.000000e+00
1.571716e+02,0.000000e+00
1.687424e+02,0.000000e+00
1.803132e+02,0.000000e+00
1.918840e+02,0.000000e+00
2.034548e+02,1.003641e+04
2.150256e+02,1.009167e+04
2.265964e+02,1.015892e+04
2.381673e+02,1.026868e+04
2.497381e+02,1.030177e+04
2.613088e+02,1.036513e+04
2.728796e+02,1.042344e+04
2.844504e+02,1.050522e+04
2.960212e+02,1.053833e+04
3.075920e+02,1.059863e+04
3.191628e+02,1.063943e+04
3.307336e+02,1.070994e+04
3.423044e+02,1.077342e+04
3.538752e+02,1.081347e+04
3.654461e+02,1.085206e+04
3.770169e+02,1.093802e+04
3.885877e+02,1.095833e+04
4.001585e+02,1.089954e+04
4.117293e+02,1.092889e+04
4.233001e+02,1.089083e+04
4.348709e+02,1.090742e+04
4.464417e+02,1.085924e+04
4.580125e+02,1.087378e+04
4.695833e+02,1.083322e+04
4.811541e+02,1.081257e+04
4.927249e+02,1.076597e+04
5.042957e+02,1.077275e+04
5.158665e+02,1.080808e+04
5.274373e+02,1.074389e+04
5.390081e+02,1.066365e+04
5.505789e+02,1.068914e+04
5.621497e+02,1.062745e+04
5.737205e+02,1.061652e+04
5.852913e+02,1.056644e+04
5.968621e+02,1.049797e+04
6.084329e+02,1.050212e+04
6.200037e+02,1.043800e+04
6.315745e+02,1.037961e+04
6.431453e+02,1.030916e+04
6.547161e+02,1.027579e+04
6.662869e+02,1.023707e+04
6.778577e+02,1.017719e+04
6.894285e+02,1.012139e+04
7.009993e+02,1.006999e+04
7.125701e+02,1.004744e+04
7.241409e+02,9.968362e+03
7.357117e+02,9.882323e+03
7.472825e+02,9.844746e+03
7.588533e+02,9.815103e+03
7.704241e+02,9.713929e+03
7.819949e+02,9.705806e+03
7.935657e+02,9.639590e+03
8.051365e+02,9.529624e+03
8.167073e+02,9.473714e+03
8.282781e+02,9.435561e+03
8.398489e+02,9.383501e+03
8.514197e+02,9.351895e+03
8.629905e+02,9.262517e+03
8.745613e+02,9.178166e+03
8.861321e+02,9.158979e+03
8.977029e+02,9.041854e+03
9.092737e+02,8.975748e+03
9.208445e+02,8.871979e+03
9.324153e+02,8.858185e+03
9.439861e+02,8.755381e+03
9.555569e+02,8.684533e+03
9.671277e+02,8.631042e+03
9.786985e+02,8.581527e+03
9.902693e+02,8.481425e+03
1.001840e+03,8.426801e+03
1.013411e+03,8.381841e+03
1.024982e+03,8.323604e+03
1.036552e+03,8.268026e+03
1.048123e+03,8.206793e+03
1.059694e+03,8.147618e+03
1.071265e+03,8.119022e+03
1.082836e+03,8.026473e+03
1.094406e+03,7.981271e+03
1.105977e+03,7.916752e+03
1.117548e+03,7.877790e+03
1.129119e+03,7.761068e+03
1.140690e+03,7.687248e+03
1.152261e+03,7.669136e+03
1.163831e+03,7.582173e+03
1.175402e+03,7.491466e+03
1.186973e+03,7.410310e+03
1.198544e+03,7.419356e+03
1.210115e+03,7.347071e+03
1.221685e+03,7.270716e+03
1.233256e+03,7.196245e+03
1.244827e+03,7.180868e+03
1.256398e+03,7.087497e+03
1.267969e+03,7.022072e+03
1.279539e+03,6.966042e+03
1.291110e+03,6.939372e+03
1.302681e+03,6.881049e+03
1.314252e+03,6.808492e+03
1.325823e+03,6.757139e+03
1.337393e+03,6.749352e+03
1.348964e+03,6.682865e+03
1.360535e+03,6.580985e+03
1.372106e+03,6.561570e+03
1.383677e+03,6.478701e+03
1.395247e+03,6.419126e+03
1.406818e+03,6.378776e+03
1.418389e+03,6.336224e+03
1.429960e+03,6.278372e+03
1.441531e+03,6.237455e+03
1.453101e+03,6.172583e+03
1.464672e+03,6.118776e+03
1.476243e+03,6.074294e+03
1.487814e+03,5.988046e+03
1.499385e+03,5.952376e+03
1.510955e+03,5.894131e+03
1.522526e+03,5.861310e+03
1.534097e+03,5.791815e+03
1.545668e+03,5.740357e+03
1.557239e+03,5.700525e+03
1.568809e+03,5.674404e+03
1.580380e+03,5.631446e+03
1.591951e+03,5.556833e+03
1.603522e+03,5.508376e+03
1.615093e+03,5.481968e+03
1.626663e+03,5.413366e+03
1.638234e+03,5.372262e+03
1.649805e+03,5.317988e+03
1.661376e+03,5.267735e+03
1.672947e+03,5.254009e+03
1.684517e+03,5.158503e+03
1.696088e+03,5.124659e+03
1.707659e+03,5.103039e+03
1.719230e+03,5.022455e+03
1.730801e+03,4.982642e+03
1.742371e+03,4.922868e+03
1.753942e+03,4.896297e+03
1.765513e+03,4.836957e+03
1.777084e+03,4.804549e+03
1.788655e+03,4.756865e+03
1.800225e+03,4.706914e+03
1.811796e+03,4.627916e+03
1.823367e+03,4.625035e+03
1.834938e+03,4.567047e+03
1.846509e+03,4.517837e+03
1.858079e+03,4.469859e+03
1.869650e+03,4.397617e+03
1.881221e+03,4.358247e+03
1.892792e+03,4.335616e+03
1.904363e+03,4.256782e+03
1.915933e+03,4.238555e+03
1.927504e+03,4.176015e+03
1.939075e+03,4.135297e+03
1.950646e+03,4.070423e+03
1.962217e+03,4.038422e+03
1.973787e+03,3.992659e+03
1.985358e+03,3.945537e+03
1.996929e+03,3.913024e+03
2.008500e+03,3.876831e+03
2.020071e+03,3.823790e+03
2.031641e+03,3.777817e+03
2.043212e+03,3.729257e+03
2.054783e+03,3.697172e+03
2.066354e+03,3.644172e+03
2.077925e+03,3.576425e+03
2.089496e+03,3.549151e+03
2.101066e+03,3.508496e+03
2.112637e+03,3.442337e+03
2.124208e+03,3.426384e+03
2.135779e+03,3.405741e+03
2.147350e+03,3.327704e+03
2.158920e+03,3.279243e+03
2.170491e+03,3.279186e+03
2.182062e+03,3.197075e+03
2.193633e+03,3.166124e+03
2.205204e+03,3.148954e+03
2.216774e+03,3.060046e+03
2.228345e+03,3.006323e+03
2.239916e+03,2.972113e+03
2.251487e+03,2.952096e+03
2.263058e+03,2.879779e+03
2.274628e+03,2.877353e+03
2.286199e+03,2.841014e+03
2.297770e+03,2.787657e+03
2.309341e+03,2.718686e+03
2.320912e+03,2.703116e+03
2.332482e+03,2.692081e+03
2.344053e+03,2.636625e+03
2.355624e+03,2.591214e+03
2.367195e+03,2.551891e+03
2.378766e+03,2.528663e+03
2.390336e+03,2.492907e+03
2.401907e+03,2.437596e+03
2.413478e+03,2.413905e+03
2.425049e+03,2.373635e+03
2.436620e+03,2.364291e+03
2.448190e+03,2.305891e+03
2.459761e+03,2.297236e+03
2.471332e+03,2.259634e+03
2.482903e+03,2.240191e+03
2.494474e+03,2.214620e+03
2.506044e+03,2.194082e+03
2.517615e+03,2.175613e+03
2.529186e+03,2.118858e+03
2.540757e+03,2.093832e+03
2.552328e+03,2.064938e+03
2.563898e+03,2.052699e+03
2.575469e+03,2.029068e+03
2.587040e+03,1.987532e+03
2.598611e+03,1.977682e+03
2.610182e+03,1.936844e+03
2.621752e+03,1.935294e+03
2.633323e+03,1.898612e+03
2.644894e+03,1.879653e+03
2.656465e+03,1.857275e+03
2.668036e+03,1.843090e+03
2.679606e+03,1.832866e+03
2.691177e+03,1.797423e+03
2.702748e+03,1.772411e+03
2.714319e+03,1.751823e+03
2.725890e+03,1.720766e+03
2.737460e+03,1.721402e+03
2.749031e+03,1.713513e+03
2.760602e+03,1.684617e+03
2.772173e+03,1.657495e+03
2.783744e+03,1.631864e+03
2.795314e+03,1.605740e+03
2.806885e+03,1.635807e+03
2.818456e+03,1.606583e+03
2.830027e+03,1.616559e+03
2.841598e+03,1.582370e+03
2.853168e+03,1.580127e+03
2.864739e+03,1.571992e+03
2.876310e+03,1.548515e+03
2.887881e+03,1.561030e+03
2.899452e+03,1.541073e+03
2.911022e+03,1.505168e+03
2.922593e+03,1.513895e+03
2.934164e+03,1.496368e+03
2.945735e+03,1.438959e+03
2.957306e+03,1.493499e+03
2.968876e+03,1.454214e+03
2.980447e+03,1.423882e+03
2.992018e+03,1.391190e+03
3.003589e+03,1.365293e+03
3.015160e+03,1.371530e+03
3.026730e+03,1.368792e+03
3.038301e+03,1.340651e+03
3.049872e+03,1.347708e+03
3.061443e+03,1.381859e+03
3.073014e+03,1.349201e+03
3.084584e+03,1.326470e+03
3.096155e+03,1.337609e+03
3.107726e+03,1.329982e+03
3.119297e+03,1.320761e+03
3.130868e+03,1.313217e+03
3.142438e+03,1.320541e+03
3.154009e+03,1.336429e+03
3.165580e+03,1.336834e+03
3.177151e+03,1.274554e+03
3.188722e+03,1.294232e+03
3.200292e+03,1.331215e+03
3.211863e+03,0.000000e+00
3.223434e+03,0.000000e+00
3.235005e+03,0.000000e+00
3.246576e+03,0.000000e+00
3.258146e+03,0.000000e+00
3.269717e+03,0.000000e+00
3.281288e+03,0.000000e+00
3.292859e+03,0.000000e+00
3.304430e+03,0.000000e+00
3.316000e+03,0.000000e+00
3.327571e+03,0.000000e+00
3.339142e+03,0.000000e+00
3.350713e+03,0.000000e+00
3.362284e+03,0.000000e+00
3.373854e+03,0.000000e+00
3.385425e+03,0.000000e+00
3.396996e+03,0.000000e+00
3.408567e+03,0.000000e+00
3.420138e+03,0.000000e+00
3.431708e+03,0.000000e+00
3.443279e+03,0.000000e+00
3.454850e+03,0.000000e+00
3.466421e+03,0.000000e+00
3.477992e+03,0.000000e+00
3.489563e+03,0.000000e+00
3.500169e+03,0.000000e+00