File: RAMAN_data/13112023_r1/black fibre8.CSV
9.931763e+01,0.000000e+00
1.108884e+02,0.000000e+00
1.224592e+02,0.000000e+00
1.340300e+02,0.000000e+00
1.456008e+02,0.000000e+00
1.571716e+02,0.000000e+00
1.687424e+02,0.000000e+00
1.803132e+02,0.000000e+00
1.918840e+02,0.000000e+00
2.034548e+02,2.853036e+03
2.150256e+02,2.886462e+03
2.265964e+02,2.887419e+03
2.381673e+02,2.921591e+03
2.497381e+02,2.936414e+03
2.613088e+02,2.951771e+03
2.728796e+02,2.958624e+03
2.844504e+02,2.989645e+03
2.960212e+02,3.004511e+03
3.075920e+02,3.010875e+03
3.191628e+02,3.032171e+03
3.307336e+02,3.052552e+03
3.423044e+02,3.053171e+03
3.538752e+02,3.065616e+03
3.654461e+02,3.067032e+03
3.770169e+02,3.112222e+03
3.885877e+02,3.076947e+03
4.001585e+02,3.072219e+03
4.117293e+02,3.096145e+03
4.233001e+02,3.083694e+03
4.348709e+02,3.111263e+03
4.464417e+02,3.104032e+03
4.580125e+02,3.104612e+03
4.695833e+02,3.088250e+03
4.811541e+02,3.100656e+03
4.927249e+02,3.086447e+03
5.042957e+02,3.086261e+03
5.158665e+02,3.116123e+03
5.274373e+02,3.089313e+03
5.390081e+02,3.087831e+03
5.505789e+02,3.083442e+03
5.621497e+02,3.097157e+03
5.737205e+02,3.071115e+03
5.852913e+02,3.058268e+03
5.968621e+02,3.069777e+03
6.084329e+02,3.071531e+03
6.200037e+02,3.043090e+03
6.315745e+02,3.046402e+03
6.431453e+02,3.055687e+03
6.547161e+02,3.037445e+03
6.662869e+02,3.028989e+03
6.778577e+02,3.010974e+03
6.894285e+02,3.014716e+03
7.009993e+02,2.990913e+03
7.125701e+02,2.981231e+03
7.241409e+02,2.987419e+03
7.357117e+02,2.987487e+03
7.472825e+02,2.981724e+03
7.588533e+02,2.959789e+03
7.704241e+02,2.935444e+03
7.819949e+02,2.949728e+03
7.935657e+02,2.932864e+03
8.051365e+02,2.912788e+03
8.167073e+02,2.919058e+03
8.282781e+02,2.892629e+03
8.398489e+02,2.888258e+03
8.514197e+02,2.881835e+03
8.629905e+02,2.877905e+03
8.745613e+02,2.851431e+03
8.861321e+02,2.860029e+03
8.977029e+02,2.847110e+03
9.092737e+02,2.823018e+03
9.208445e+02,2.811559e+03
9.324153e+02,2.795731e+03
9.439861e+02,2.786331e+03
9.555569e+02,2.777949e+03
9.671277e+02,2.762214e+03
9.786985e+02,2.759011e+03
9.902693e+02,2.747588e+03
1.001840e+03,2.714551e+03
1.013411e+03,2.729091e+03
1.024982e+03,2.718518e+03
1.036552e+03,2.717121e+03
1.048123e+03,2.681889e+03
1.059694e+03,2.682774e+03
1.071265e+03,2.697200e+03
1.082836e+03,2.683112e+03
1.094406e+03,2.705535e+03
1.105977e+03,2.675295e+03
1.117548e+03,2.678850e+03
1.129119e+03,2.642051e+03
1.140690e+03,2.617536e+03
1.152261e+03,2.606400e+03
1.163831e+03,2.609878e+03
1.175402e+03,2.565546e+03
1.186973e+03,2.562871e+03
1.198544e+03,2.561613e+03
1.210115e+03,2.553038e+03
1.221685e+03,2.527839e+03
1.233256e+03,2.518722e+03
1.244827e+03,2.534078e+03
1.256398e+03,2.505750e+03
1.267969e+03,2.496634e+03
1.279539e+03,2.493110e+03
1.291110e+03,2.482500e+03
1.302681e+03,2.466111e+03
1.314252e+03,2.466615e+03
1.325823e+03,2.456637e+03
1.337393e+03,2.456265e+03
1.348964e+03,2.450777e+03
1.360535e+03,2.431974e+03
1.372106e+03,2.428897e+03
1.383677e+03,2.425966e+03
1.395247e+03,2.399643e+03
1.406818e+03,2.382859e+03
1.418389e+03,2.376591e+03
1.429960e+03,2.357584e+03
1.441531e+03,2.356066e+03
1.453101e+03,2.347384e+03
1.464672e+03,2.342323e+03
1.476243e+03,2.318439e+03
1.487814e+03,2.307900e+03
1.499385e+03,2.291676e+03
1.510955e+03,2.295419e+03
1.522526e+03,2.284113e+03
1.534097e+03,2.283658e+03
1.545668e+03,2.249825e+03
1.557239e+03,2.255364e+03
1.568809e+03,2.238534e+03
1.580380e+03,2.235855e+03
1.591951e+03,2.226415e+03
1.603522e+03,2.228034e+03
1.615093e+03,2.194100e+03
1.626663e+03,2.199134e+03
1.638234e+03,2.173824e+03
1.649805e+03,2.154431e+03
1.661376e+03,2.137843e+03
1.672947e+03,2.146290e+03
1.684517e+03,2.126465e+03
1.696088e+03,2.112545e+03
1.707659e+03,2.091927e+03
1.719230e+03,2.075137e+03
1.730801e+03,2.077135e+03
1.742371e+03,2.057822e+03
1.753942e+03,2.037508e+03
1.765513e+03,2.018156e+03
1.777084e+03,2.035736e+03
1.788655e+03,2.009323e+03
1.800225e+03,2.010280e+03
1.811796e+03,1.980764e+03
1.823367e+03,1.971435e+03
1.834938e+03,1.965114e+03
1.846509e+03,1.949500e+03
1.858079e+03,1.940313e+03
1.869650e+03,1.944164e+03
1.881221e+03,1.900702e+03
1.892792e+03,1.883229e+03
1.904363e+03,1.886846e+03
1.915933e+03,1.868031e+03
1.927504e+03,1.858175e+03
1.939075e+03,1.841532e+03
1.950646e+03,1.823509e+03
1.962217e+03,1.825672e+03
1.973787e+03,1.802417e+03
1.985358e+03,1.803624e+03
1.996929e+03,1.774154e+03
2.008500e+03,1.763725e+03
2.020071e+03,1.745935e+03
2.031641e+03,1.725701e+03
2.043212e+03,1.707588e+03
2.054783e+03,1.698469e+03
2.066354e+03,1.699711e+03
2.077925e+03,1.672430e+03
2.089496e+03,1.661158e+03
2.101066e+03,1.652037e+03
2.112637e+03,1.636072e+03
2.124208e+03,1.620442e+03
2.135779e+03,1.604007e+03
2.147350e+03,1.579536e+03
2.158920e+03,1.585811e+03
2.170491e+03,1.547409e+03
2.182062e+03,1.551941e+03
2.193633e+03,1.524080e+03
2.205204e+03,1.516403e+03
2.216774e+03,1.488048e+03
2.228345e+03,1.483799e+03
2.239916e+03,1.467807e+03
2.251487e+03,1.468228e+03
2.263058e+03,1.433297e+03
2.274628e+03,1.425128e+03
2.286199e+03,1.410919e+03
2.297770e+03,1.404749e+03
2.309341e+03,1.392550e+03
2.320912e+03,1.358662e+03
2.332482e+03,1.362976e+03
2.344053e+03,1.342150e+03
2.355624e+03,1.335438e+03
2.367195e+03,1.312289e+03
2.378766e+03,1.315079e+03
2.390336e+03,1.293629e+03
2.401907e+03,1.275672e+03
2.413478e+03,1.270335e+03
2.425049e+03,1.262746e+03
2.436620e+03,1.240488e+03
2.448190e+03,1.224376e+03
2.459761e+03,1.204566e+03
2.471332e+03,1.221765e+03
2.482903e+03,1.201638e+03
2.494474e+03,1.195920e+03
2.506044e+03,1.188523e+03
2.517615e+03,1.164481e+03
2.529186e+03,1.157756e+03
2.540757e+03,1.157323e+03
2.552328e+03,1.131584e+03
2.563898e+03,1.142419e+03
2.575469e+03,1.128552e+03
2.587040e+03,1.100304e+03
2.598611e+03,1.094075e+03
2.610182e+03,1.092042e+03
2.621752e+03,1.084884e+03
2.633323e+03,1.067517e+03
2.644894e+03,1.062194e+03
2.656465e+03,1.048527e+03
2.668036e+03,1.039736e+03
2.679606e+03,1.027059e+03
2.691177e+03,1.013059e+03
2.702748e+03,1.029716e+03
2.714319e+03,1.006406e+03
2.725890e+03,1.019170e+03
2.737460e+03,9.872874e+02
2.749031e+03,1.002054e+03
2.760602e+03,9.988570e+02
2.772173e+03,9.685755e+02
2.783744e+03,9.581299e+02
2.795314e+03,9.387003e+02
2.806885e+03,9.751114e+02
2.818456e+03,9.591473e+02
2.830027e+03,9.518099e+02
2.841598e+03,9.528420e+02
2.853168e+03,9.353744e+02
2.864739e+03,9.557074e+02
2.876310e+03,9.556638e+02
2.887881e+03,9.756129e+02
2.899452e+03,9.587440e+02
2.911022e+03,9.463410e+02
2.922593e+03,9.214344e+02
2.934164e+03,8.971357e+02
2.945735e+03,9.117528e+02
2.957306e+03,9.172689e+02
2.968876e+03,8.924095e+02
2.980447e+03,8.413443e+02
2.992018e+03,8.536942e+02
3.003589e+03,8.749489e+02
3.015160e+03,8.377910e+02
3.026730e+03,8.251003e+02
3.038301e+03,8.469216e+02
3.049872e+03,8.355075e+02
3.061443e+03,8.291631e+02
3.073014e+03,8.217034e+02
3.084584e+03,8.308610e+02
3.096155e+03,8.150255e+02
3.107726e+03,7.917152e+02
3.119297e+03,8.095854e+02
3.130868e+03,8.426810e+02
3.142438e+03,8.173441e+02
3.154009e+03,7.793359e+02
3.165580e+03,7.937130e+02
3.177151e+03,8.275159e+02
3.188722e+03,8.198865e+02
3.200292e+03,8.374305e+02
3.211863e+03,0.000000e+00
3.223434e+03,0.000000e+00
3.235005e+03,0.000000e+00
3.246576e+03,0.000000e+00
3.258146e+03,0.000000e+00
3.269717e+03,0.000000e+00
3.281288e+03,0.000000e+00
3.292859e+03,0.000000e+00
3.304430e+03,0.000000e+00
3.316000e+03,0.000000e+00
3.327571e+03,0.000000e+00
3.339142e+03,0.000000e+00
3.350713e+03,0.000000e+00
3.362284e+03,0.000000e+00
3.373854e+03,0.000000e+00
3.385425e+03,0.000000e+00
3.396996e+03,0.000000e+00
3.408567e+03,0.000000e+00
3.420138e+03,0.000000e+00
3.431708e+03,0.000000e+00
3.443279e+03,0.000000e+00
3.454850e+03,0.000000e+00
3.466421e+03,0.000000e+00
3.477992e+03,0.000000e+00
3.489563e+03,0.000000e+00
3.500169e+03,0.000000e+00