File: RAMAN_data/13112023_r1/black fibre2.CSV
9.931763e+01,0.000000e+00
1.108884e+02,0.000000e+00
1.224592e+02,0.000000e+00
1.340300e+02,0.000000e+00
1.456008e+02,0.000000e+00
1.571716e+02,0.000000e+00
1.687424e+02,0.000000e+00
1.803132e+02,0.000000e+00
1.918840e+02,0.000000e+00
2.034548e+02,4.570793e+03
2.150256e+02,4.607633e+03
2.265964e+02,4.652007e+03
2.381673e+02,4.708232e+03
2.497381e+02,4.790956e+03
2.613088e+02,4.787843e+03
2.728796e+02,4.816601e+03
2.844504e+02,4.842615e+03
2.960212e+02,4.875564e+03
3.075920e+02,4.898387e+03
3.191628e+02,4.922097e+03
3.307336e+02,4.941124e+03
3.423044e+02,4.985687e+03
3.538752e+02,4.991196e+03
3.654461e+02,5.017929e+03
3.770169e+02,5.055191e+03
3.885877e+02,5.049508e+03
4.001585e+02,5.071959e+03
4.117293e+02,5.095963e+03
4.233001e+02,5.106849e+03
4.348709e+02,5.146861e+03
4.464417e+02,5.136154e+03
4.580125e+02,5.172167e+03
4.695833e+02,5.167807e+03
4.811541e+02,5.157507e+03
4.927249e+02,5.175881e+03
5.042957e+02,5.205198e+03
5.158665e+02,5.236679e+03
5.274373e+02,5.227906e+03
5.390081e+02,5.282333e+03
5.505789e+02,5.268391e+03
5.621497e+02,5.237025e+03
5.737205e+02,5.204019e+03
5.852913e+02,5.217348e+03
5.968621e+02,5.233273e+03
6.084329e+02,5.233287e+03
6.200037e+02,5.236474e+03
6.315745e+02,5.211236e+03
6.431453e+02,5.202202e+03
6.547161e+02,5.193519e+03
6.662869e+02,5.177148e+03
6.778577e+02,5.179950e+03
6.894285e+02,5.178609e+03
7.009993e+02,5.179208e+03
7.125701e+02,5.166302e+03
7.241409e+02,5.159466e+03
7.357117e+02,5.141569e+03
7.472825e+02,5.167781e+03
7.588533e+02,5.167178e+03
7.704241e+02,5.095400e+03
7.819949e+02,5.093735e+03
7.935657e+02,5.107960e+03
8.051365e+02,5.077866e+03
8.167073e+02,5.067548e+03
8.282781e+02,5.064549e+03
8.398489e+02,5.041352e+03
8.514197e+02,5.031646e+03
8.629905e+02,5.010301e+03
8.745613e+02,4.994571e+03
8.861321e+02,4.991694e+03
8.977029e+02,4.939271e+03
9.092737e+02,4.945177e+03
9.208445e+02,4.915354e+03
9.324153e+02,4.902959e+03
9.439861e+02,4.906803e+03
9.555569e+02,4.878331e+03
9.671277e+02,4.890532e+03
9.786985e+02,4.854961e+03
9.902693e+02,4.828637e+03
1.001840e+03,4.791213e+03
1.013411e+03,4.786039e+03
1.024982e+03,4.781673e+03
1.036552e+03,4.771980e+03
1.048123e+03,4.745148e+03
1.059694e+03,4.704945e+03
1.071265e+03,4.725557e+03
1.082836e+03,4.687435e+03
1.094406e+03,4.702643e+03
1.105977e+03,4.674564e+03
1.117548e+03,4.641052e+03
1.129119e+03,4.602944e+03
1.140690e+03,4.578233e+03
1.152261e+03,4.575252e+03
1.163831e+03,4.554431e+03
1.175402e+03,4.526861e+03
1.186973e+03,4.496385e+03
1.198544e+03,4.501042e+03
1.210115e+03,4.497859e+03
1.221685e+03,4.464320e+03
1.233256e+03,4.444271e+03
1.244827e+03,4.406703e+03
1.256398e+03,4.425536e+03
1.267969e+03,4.357817e+03
1.279539e+03,4.367460e+03
1.291110e+03,4.361249e+03
1.302681e+03,4.341302e+03
1.314252e+03,4.329075e+03
1.325823e+03,4.309273e+03
1.337393e+03,4.284956e+03
1.348964e+03,4.266018e+03
1.360535e+03,4.255675e+03
1.372106e+03,4.237085e+03
1.383677e+03,4.218642e+03
1.395247e+03,4.199289e+03
1.406818e+03,4.178764e+03
1.418389e+03,4.157395e+03
1.429960e+03,4.143337e+03
1.441531e+03,4.121322e+03
1.453101e+03,4.088332e+03
1.464672e+03,4.099434e+03
1.476243e+03,4.073687e+03
1.487814e+03,4.041234e+03
1.499385e+03,4.013324e+03
1.510955e+03,3.996370e+03
1.522526e+03,3.971692e+03
1.534097e+03,3.964437e+03
1.545668e+03,3.940230e+03
1.557239e+03,3.959796e+03
1.568809e+03,4.054323e+03
1.580380e+03,4.018560e+03
1.591951e+03,3.934479e+03
1.603522e+03,3.891927e+03
1.615093e+03,3.864813e+03
1.626663e+03,3.848956e+03
1.638234e+03,3.798306e+03
1.649805e+03,3.775039e+03
1.661376e+03,3.762346e+03
1.672947e+03,3.768129e+03
1.684517e+03,3.746293e+03
1.696088e+03,3.713608e+03
1.707659e+03,3.717234e+03
1.719230e+03,3.686239e+03
1.730801e+03,3.654147e+03
1.742371e+03,3.653119e+03
1.753942e+03,3.659358e+03
1.765513e+03,3.624048e+03
1.777084e+03,3.609540e+03
1.788655e+03,3.582179e+03
1.800225e+03,3.582426e+03
1.811796e+03,3.555234e+03
1.823367e+03,3.520366e+03
1.834938e+03,3.495151e+03
1.846509e+03,3.524182e+03
1.858079e+03,3.473297e+03
1.869650e+03,3.468326e+03
1.881221e+03,3.422947e+03
1.892792e+03,3.419911e+03
1.904363e+03,3.404427e+03
1.915933e+03,3.371257e+03
1.927504e+03,3.359099e+03
1.939075e+03,3.328088e+03
1.950646e+03,3.294926e+03
1.962217e+03,3.278159e+03
1.973787e+03,3.270876e+03
1.985358e+03,3.236093e+03
1.996929e+03,3.186095e+03
2.008500e+03,3.204318e+03
2.020071e+03,3.192140e+03
2.031641e+03,3.165276e+03
2.043212e+03,3.155599e+03
2.054783e+03,3.086816e+03
2.066354e+03,3.098810e+03
2.077925e+03,3.054859e+03
2.089496e+03,3.035865e+03
2.101066e+03,3.016895e+03
2.112637e+03,3.001040e+03
2.124208e+03,2.987132e+03
2.135779e+03,2.925077e+03
2.147350e+03,2.906309e+03
2.158920e+03,2.883221e+03
2.170491e+03,2.866647e+03
2.182062e+03,2.819697e+03
2.193633e+03,2.797922e+03
2.205204e+03,2.787847e+03
2.216774e+03,2.753874e+03
2.228345e+03,2.715789e+03
2.239916e+03,2.677813e+03
2.251487e+03,2.704571e+03
2.263058e+03,2.642921e+03
2.274628e+03,2.618566e+03
2.286199e+03,2.605268e+03
2.297770e+03,2.568515e+03
2.309341e+03,2.530796e+03
2.320912e+03,2.530550e+03
2.332482e+03,2.472942e+03
2.344053e+03,2.457884e+03
2.355624e+03,2.425666e+03
2.367195e+03,2.399754e+03
2.378766e+03,2.378824e+03
2.390336e+03,2.354136e+03
2.401907e+03,2.328567e+03
2.413478e+03,2.302496e+03
2.425049e+03,2.267065e+03
2.436620e+03,2.267147e+03
2.448190e+03,2.238567e+03
2.459761e+03,2.186640e+03
2.471332e+03,2.192147e+03
2.482903e+03,2.162601e+03
2.494474e+03,2.160726e+03
2.506044e+03,2.135573e+03
2.517615e+03,2.106184e+03
2.529186e+03,2.092462e+03
2.540757e+03,2.050999e+03
2.552328e+03,2.067070e+03
2.563898e+03,2.045120e+03
2.575469e+03,2.034349e+03
2.587040e+03,1.985790e+03
2.598611e+03,1.970740e+03
2.610182e+03,1.953431e+03
2.621752e+03,1.916277e+03
2.633323e+03,1.913211e+03
2.644894e+03,1.920530e+03
2.656465e+03,1.887380e+03
2.668036e+03,1.858986e+03
2.679606e+03,1.866852e+03
2.691177e+03,1.830072e+03
2.702748e+03,1.853467e+03
2.714319e+03,1.791509e+03
2.725890e+03,1.816289e+03
2.737460e+03,1.782299e+03
2.749031e+03,1.787740e+03
2.760602e+03,1.763751e+03
2.772173e+03,1.720968e+03
2.783744e+03,1.714009e+03
2.795314e+03,1.755816e+03
2.806885e+03,1.710485e+03
2.818456e+03,1.705384e+03
2.830027e+03,1.692168e+03
2.841598e+03,1.689387e+03
2.853168e+03,1.651265e+03
2.864739e+03,1.689293e+03
2.876310e+03,1.663428e+03
2.887881e+03,1.650011e+03
2.899452e+03,1.627738e+03
2.911022e+03,1.618555e+03
2.922593e+03,1.602830e+03
2.934164e+03,1.581502e+03
2.945735e+03,1.543004e+03
2.957306e+03,1.587407e+03
2.968876e+03,1.511691e+03
2.980447e+03,1.547880e+03
2.992018e+03,1.484739e+03
3.003589e+03,1.481326e+03
3.015160e+03,1.479621e+03
3.026730e+03,1.459516e+03
3.038301e+03,1.488790e+03
3.049872e+03,1.440187e+03
3.061443e+03,1.463542e+03
3.073014e+03,1.438814e+03
3.084584e+03,1.412385e+03
3.096155e+03,1.420707e+03
3.107726e+03,1.404312e+03
3.119297e+03,1.412080e+03
3.130868e+03,1.418596e+03
3.142438e+03,1.444883e+03
3.154009e+03,1.421766e+03
3.165580e+03,1.418565e+03
3.177151e+03,1.438718e+03
3.188722e+03,1.381199e+03
3.200292e+03,1.410458e+03
3.211863e+03,0.000000e+00
3.223434e+03,0.000000e+00
3.235005e+03,0.000000e+00
3.246576e+03,0.000000e+00
3.258146e+03,0.000000e+00
3.269717e+03,0.000000e+00
3.281288e+03,0.000000e+00
3.292859e+03,0.000000e+00
3.304430e+03,0.000000e+00
3.316000e+03,0.000000e+00
3.327571e+03,0.000000e+00
3.339142e+03,0.000000e+00
3.350713e+03,0.000000e+00
3.362284e+03,0.000000e+00
3.373854e+03,0.000000e+00
3.385425e+03,0.000000e+00
3.396996e+03,0.000000e+00
3.408567e+03,0.000000e+00
3.420138e+03,0.000000e+00
3.431708e+03,0.000000e+00
3.443279e+03,0.000000e+00
3.454850e+03,0.000000e+00
3.466421e+03,0.000000e+00
3.477992e+03,0.000000e+00
3.489563e+03,0.000000e+00
3.500169e+03,0.000000e+00