File: RAMAN_data/13112023_r1/black fibre3.CSV
9.931763e+01,0.000000e+00
1.108884e+02,0.000000e+00
1.224592e+02,0.000000e+00
1.340300e+02,0.000000e+00
1.456008e+02,0.000000e+00
1.571716e+02,0.000000e+00
1.687424e+02,0.000000e+00
1.803132e+02,0.000000e+00
1.918840e+02,0.000000e+00
2.034548e+02,3.652093e+03
2.150256e+02,3.647241e+03
2.265964e+02,3.657905e+03
2.381673e+02,3.662996e+03
2.497381e+02,3.668173e+03
2.613088e+02,3.648095e+03
2.728796e+02,3.645760e+03
2.844504e+02,3.663947e+03
2.960212e+02,3.656658e+03
3.075920e+02,3.642488e+03
3.191628e+02,3.657814e+03
3.307336e+02,3.636224e+03
3.423044e+02,3.642554e+03
3.538752e+02,3.623820e+03
3.654461e+02,3.635083e+03
3.770169e+02,3.644735e+03
3.885877e+02,3.609336e+03
4.001585e+02,3.606310e+03
4.117293e+02,3.572518e+03
4.233001e+02,3.563564e+03
4.348709e+02,3.575460e+03
4.464417e+02,3.549335e+03
4.580125e+02,3.540505e+03
4.695833e+02,3.526231e+03
4.811541e+02,3.515526e+03
4.927249e+02,3.499095e+03
5.042957e+02,3.488832e+03
5.158665e+02,3.482289e+03
5.274373e+02,3.449872e+03
5.390081e+02,3.446421e+03
5.505789e+02,3.414379e+03
5.621497e+02,3.424875e+03
5.737205e+02,3.388681e+03
5.852913e+02,3.376708e+03
5.968621e+02,3.351743e+03
6.084329e+02,3.340665e+03
6.200037e+02,3.322919e+03
6.315745e+02,3.309944e+03
6.431453e+02,3.291544e+03
6.547161e+02,3.276250e+03
6.662869e+02,3.250262e+03
6.778577e+02,3.232325e+03
6.894285e+02,3.238187e+03
7.009993e+02,3.209978e+03
7.125701e+02,3.186894e+03
7.241409e+02,3.176668e+03
7.357117e+02,3.143489e+03
7.472825e+02,3.135419e+03
7.588533e+02,3.115259e+03
7.704241e+02,3.084405e+03
7.819949e+02,3.076875e+03
7.935657e+02,3.071954e+03
8.051365e+02,3.051219e+03
8.167073e+02,3.013300e+03
8.282781e+02,3.010977e+03
8.398489e+02,3.006922e+03
8.514197e+02,2.963693e+03
8.629905e+02,2.962083e+03
8.745613e+02,2.920817e+03
8.861321e+02,2.934923e+03
8.977029e+02,2.910216e+03
9.092737e+02,2.876330e+03
9.208445e+02,2.860888e+03
9.324153e+02,2.855583e+03
9.439861e+02,2.815940e+03
9.555569e+02,2.791960e+03
9.671277e+02,2.797555e+03
9.786985e+02,2.775425e+03
9.902693e+02,2.766995e+03
1.001840e+03,2.740386e+03
1.013411e+03,2.729383e+03
1.024982e+03,2.724084e+03
1.036552e+03,2.716917e+03
1.048123e+03,2.709509e+03
1.059694e+03,2.684196e+03
1.071265e+03,2.656016e+03
1.082836e+03,2.668163e+03
1.094406e+03,2.680052e+03
1.105977e+03,2.627833e+03
1.117548e+03,2.640712e+03
1.129119e+03,2.605768e+03
1.140690e+03,2.569415e+03
1.152261e+03,2.577885e+03
1.163831e+03,2.558317e+03
1.175402e+03,2.544327e+03
1.186973e+03,2.514457e+03
1.198544e+03,2.516132e+03
1.210115e+03,2.508920e+03
1.221685e+03,2.502676e+03
1.233256e+03,2.491173e+03
1.244827e+03,2.497242e+03
1.256398e+03,2.493976e+03
1.267969e+03,2.474431e+03
1.279539e+03,2.450310e+03
1.291110e+03,2.457048e+03
1.302681e+03,2.418917e+03
1.314252e+03,2.418924e+03
1.325823e+03,2.410531e+03
1.337393e+03,2.405161e+03
1.348964e+03,2.367852e+03
1.360535e+03,2.373290e+03
1.372106e+03,2.364354e+03
1.383677e+03,2.352958e+03
1.395247e+03,2.307235e+03
1.406818e+03,2.312838e+03
1.418389e+03,2.303046e+03
1.429960e+03,2.289889e+03
1.441531e+03,2.276237e+03
1.453101e+03,2.251820e+03
1.464672e+03,2.249307e+03
1.476243e+03,2.233265e+03
1.487814e+03,2.220735e+03
1.499385e+03,2.199790e+03
1.510955e+03,2.199203e+03
1.522526e+03,2.199932e+03
1.534097e+03,2.187736e+03
1.545668e+03,2.159487e+03
1.557239e+03,2.154359e+03
1.568809e+03,2.147157e+03
1.580380e+03,2.137885e+03
1.591951e+03,2.115849e+03
1.603522e+03,2.122504e+03
1.615093e+03,2.084668e+03
1.626663e+03,2.063080e+03
1.638234e+03,2.047649e+03
1.649805e+03,2.026309e+03
1.661376e+03,2.010401e+03
1.672947e+03,2.019842e+03
1.684517e+03,1.995601e+03
1.696088e+03,1.965929e+03
1.707659e+03,1.944910e+03
1.719230e+03,1.942989e+03
1.730801e+03,1.921860e+03
1.742371e+03,1.933792e+03
1.753942e+03,1.906107e+03
1.765513e+03,1.872802e+03
1.777084e+03,1.883162e+03
1.788655e+03,1.867837e+03
1.800225e+03,1.835397e+03
1.811796e+03,1.819406e+03
1.823367e+03,1.807897e+03
1.834938e+03,1.797628e+03
1.846509e+03,1.775072e+03
1.858079e+03,1.773054e+03
1.869650e+03,1.729868e+03
1.881221e+03,1.723937e+03
1.892792e+03,1.728161e+03
1.904363e+03,1.722761e+03
1.915933e+03,1.674739e+03
1.927504e+03,1.680316e+03
1.939075e+03,1.658822e+03
1.950646e+03,1.629829e+03
1.962217e+03,1.635913e+03
1.973787e+03,1.605752e+03
1.985358e+03,1.605459e+03
1.996929e+03,1.583679e+03
2.008500e+03,1.562160e+03
2.020071e+03,1.550435e+03
2.031641e+03,1.530314e+03
2.043212e+03,1.516337e+03
2.054783e+03,1.491965e+03
2.066354e+03,1.472596e+03
2.077925e+03,1.468442e+03
2.089496e+03,1.440750e+03
2.101066e+03,1.424612e+03
2.112637e+03,1.416443e+03
2.124208e+03,1.411313e+03
2.135779e+03,1.407829e+03
2.147350e+03,1.361710e+03
2.158920e+03,1.348664e+03
2.170491e+03,1.332620e+03
2.182062e+03,1.325705e+03
2.193633e+03,1.303744e+03
2.205204e+03,1.309158e+03
2.216774e+03,1.294405e+03
2.228345e+03,1.273713e+03
2.239916e+03,1.256706e+03
2.251487e+03,1.244767e+03
2.263058e+03,1.228119e+03
2.274628e+03,1.209189e+03
2.286199e+03,1.190215e+03
2.297770e+03,1.189871e+03
2.309341e+03,1.175188e+03
2.320912e+03,1.155602e+03
2.332482e+03,1.151964e+03
2.344053e+03,1.128586e+03
2.355624e+03,1.109716e+03
2.367195e+03,1.108401e+03
2.378766e+03,1.095541e+03
2.390336e+03,1.091794e+03
2.401907e+03,1.077081e+03
2.413478e+03,1.049967e+03
2.425049e+03,1.048442e+03
2.436620e+03,1.037795e+03
2.448190e+03,1.019363e+03
2.459761e+03,9.977408e+02
2.471332e+03,1.002613e+03
2.482903e+03,9.967175e+02
2.494474e+03,9.833865e+02
2.506044e+03,9.770561e+02
2.517615e+03,9.601280e+02
2.529186e+03,9.666057e+02
2.540757e+03,9.412144e+02
2.552328e+03,9.431039e+02
2.563898e+03,9.430546e+02
2.575469e+03,9.264471e+02
2.587040e+03,9.123444e+02
2.598611e+03,9.096852e+02
2.610182e+03,8.943646e+02
2.621752e+03,8.751825e+02
2.633323e+03,8.714432e+02
2.644894e+03,8.669987e+02
2.656465e+03,8.775951e+02
2.668036e+03,8.568292e+02
2.679606e+03,8.501011e+02
2.691177e+03,8.397234e+02
2.702748e+03,8.380016e+02
2.714319e+03,8.310618e+02
2.725890e+03,8.314259e+02
2.737460e+03,8.172226e+02
2.749031e+03,8.027750e+02
2.760602e+03,7.923338e+02
2.772173e+03,7.944554e+02
2.783744e+03,7.795514e+02
2.795314e+03,8.000803e+02
2.806885e+03,7.856779e+02
2.818456e+03,7.661863e+02
2.830027e+03,7.626005e+02
2.841598e+03,7.694461e+02
2.853168e+03,7.799088e+02
2.864739e+03,7.794138e+02
2.876310e+03,7.900280e+02
2.887881e+03,7.961051e+02
2.899452e+03,7.865258e+02
2.911022e+03,7.892719e+02
2.922593e+03,7.442712e+02
2.934164e+03,7.325495e+02
2.945735e+03,7.457703e+02
2.957306e+03,7.888912e+02
2.968876e+03,7.359968e+02
2.980447e+03,6.879847e+02
2.992018e+03,6.960399e+02
3.003589e+03,6.653441e+02
3.015160e+03,6.683964e+02
3.026730e+03,6.740790e+02
3.038301e+03,7.003694e+02
3.049872e+03,6.719353e+02
3.061443e+03,6.704736e+02
3.073014e+03,6.843668e+02
3.084584e+03,6.646885e+02
3.096155e+03,6.653332e+02
3.107726e+03,6.567665e+02
3.119297e+03,6.507900e+02
3.130868e+03,6.562133e+02
3.142438e+03,6.589293e+02
3.154009e+03,6.542161e+02
3.165580e+03,6.682653e+02
3.177151e+03,6.720082e+02
3.188722e+03,6.585251e+02
3.200292e+03,6.911820e+02
3.211863e+03,0.000000e+00
3.223434e+03,0.000000e+00
3.235005e+03,0.000000e+00
3.246576e+03,0.000000e+00
3.258146e+03,0.000000e+00
3.269717e+03,0.000000e+00
3.281288e+03,0.000000e+00
3.292859e+03,0.000000e+00
3.304430e+03,0.000000e+00
3.316000e+03,0.000000e+00
3.327571e+03,0.000000e+00
3.339142e+03,0.000000e+00
3.350713e+03,0.000000e+00
3.362284e+03,0.000000e+00
3.373854e+03,0.000000e+00
3.385425e+03,0.000000e+00
3.396996e+03,0.000000e+00
3.408567e+03,0.000000e+00
3.420138e+03,0.000000e+00
3.431708e+03,0.000000e+00
3.443279e+03,0.000000e+00
3.454850e+03,0.000000e+00
3.466421e+03,0.000000e+00
3.477992e+03,0.000000e+00
3.489563e+03,0.000000e+00
3.500169e+03,0.000000e+00