File: RAMAN_data/13112023_r1/black fibre1.CSV
9.931763e+01,0.000000e+00
1.108884e+02,0.000000e+00
1.224592e+02,0.000000e+00
1.340300e+02,0.000000e+00
1.456008e+02,0.000000e+00
1.571716e+02,0.000000e+00
1.687424e+02,0.000000e+00
1.803132e+02,0.000000e+00
1.918840e+02,0.000000e+00
2.034548e+02,6.901549e+03
2.150256e+02,6.868278e+03
2.265964e+02,6.829776e+03
2.381673e+02,6.784938e+03
2.497381e+02,6.735119e+03
2.613088e+02,6.710494e+03
2.728796e+02,6.707436e+03
2.844504e+02,6.700392e+03
2.960212e+02,6.670180e+03
3.075920e+02,6.607619e+03
3.191628e+02,6.579710e+03
3.307336e+02,6.530861e+03
3.423044e+02,6.489148e+03
3.538752e+02,6.406500e+03
3.654461e+02,6.361139e+03
3.770169e+02,6.329575e+03
3.885877e+02,6.233889e+03
4.001585e+02,6.157104e+03
4.117293e+02,6.115497e+03
4.233001e+02,6.051454e+03
4.348709e+02,5.956937e+03
4.464417e+02,5.874452e+03
4.580125e+02,5.801789e+03
4.695833e+02,5.739771e+03
4.811541e+02,5.704963e+03
4.927249e+02,5.622155e+03
5.042957e+02,5.578100e+03
5.158665e+02,5.517376e+03
5.274373e+02,5.435674e+03
5.390081e+02,5.360536e+03
5.505789e+02,5.316368e+03
5.621497e+02,5.256464e+03
5.737205e+02,5.172828e+03
5.852913e+02,5.106640e+03
5.968621e+02,5.068226e+03
6.084329e+02,5.009884e+03
6.200037e+02,4.935427e+03
6.315745e+02,4.878541e+03
6.431453e+02,4.817437e+03
6.547161e+02,4.774521e+03
6.662869e+02,4.743507e+03
6.778577e+02,4.651403e+03
6.894285e+02,4.613469e+03
7.009993e+02,4.591323e+03
7.125701e+02,4.524916e+03
7.241409e+02,4.462244e+03
7.357117e+02,4.431762e+03
7.472825e+02,4.401181e+03
7.588533e+02,4.317164e+03
7.704241e+02,4.275874e+03
7.819949e+02,4.227650e+03
7.935657e+02,4.203946e+03
8.051365e+02,4.165854e+03
8.167073e+02,4.129276e+03
8.282781e+02,4.082704e+03
8.398489e+02,4.078821e+03
8.514197e+02,4.052707e+03
8.629905e+02,4.013302e+03
8.745613e+02,3.970965e+03
8.861321e+02,3.967218e+03
8.977029e+02,3.925721e+03
9.092737e+02,3.867068e+03
9.208445e+02,3.851968e+03
9.324153e+02,3.848032e+03
9.439861e+02,3.798418e+03
9.555569e+02,3.777072e+03
9.671277e+02,3.763621e+03
9.786985e+02,3.763865e+03
9.902693e+02,3.733725e+03
1.001840e+03,3.731950e+03
1.013411e+03,3.723958e+03
1.024982e+03,3.692865e+03
1.036552e+03,3.703767e+03
1.048123e+03,3.669814e+03
1.059694e+03,3.680941e+03
1.071265e+03,3.725055e+03
1.082836e+03,3.706227e+03
1.094406e+03,3.695795e+03
1.105977e+03,3.653274e+03
1.117548e+03,3.687504e+03
1.129119e+03,3.658417e+03
1.140690e+03,3.692699e+03
1.152261e+03,3.726362e+03
1.163831e+03,3.764597e+03
1.175402e+03,3.737794e+03
1.186973e+03,3.635159e+03
1.198544e+03,3.665364e+03
1.210115e+03,3.642580e+03
1.221685e+03,3.637498e+03
1.233256e+03,3.590694e+03
1.244827e+03,3.594672e+03
1.256398e+03,3.574721e+03
1.267969e+03,3.599181e+03
1.279539e+03,3.617374e+03
1.291110e+03,3.605340e+03
1.302681e+03,3.620411e+03
1.314252e+03,3.661539e+03
1.325823e+03,3.714621e+03
1.337393e+03,3.669337e+03
1.348964e+03,3.602823e+03
1.360535e+03,3.571023e+03
1.372106e+03,3.564151e+03
1.383677e+03,3.561030e+03
1.395247e+03,3.521586e+03
1.406818e+03,3.498078e+03
1.418389e+03,3.473066e+03
1.429960e+03,3.486874e+03
1.441531e+03,3.479227e+03
1.453101e+03,3.446461e+03
1.464672e+03,3.435338e+03
1.476243e+03,3.439997e+03
1.487814e+03,3.392372e+03
1.499385e+03,3.371622e+03
1.510955e+03,3.341074e+03
1.522526e+03,3.334378e+03
1.534097e+03,3.302215e+03
1.545668e+03,3.267801e+03
1.557239e+03,3.289989e+03
1.568809e+03,3.246573e+03
1.580380e+03,3.252228e+03
1.591951e+03,3.158692e+03
1.603522e+03,3.170816e+03
1.615093e+03,3.181346e+03
1.626663e+03,3.083684e+03
1.638234e+03,3.029202e+03
1.649805e+03,2.997688e+03
1.661376e+03,2.973922e+03
1.672947e+03,2.930615e+03
1.684517e+03,2.901914e+03
1.696088e+03,2.860460e+03
1.707659e+03,2.834803e+03
1.719230e+03,2.821644e+03
1.730801e+03,2.787517e+03
1.742371e+03,2.735796e+03
1.753942e+03,2.700090e+03
1.765513e+03,2.653665e+03
1.777084e+03,2.624940e+03
1.788655e+03,2.577699e+03
1.800225e+03,2.549150e+03
1.811796e+03,2.522110e+03
1.823367e+03,2.472073e+03
1.834938e+03,2.432908e+03
1.846509e+03,2.428745e+03
1.858079e+03,2.393272e+03
1.869650e+03,2.326092e+03
1.881221e+03,2.304171e+03
1.892792e+03,2.250896e+03
1.904363e+03,2.227599e+03
1.915933e+03,2.195708e+03
1.927504e+03,2.157709e+03
1.939075e+03,2.121220e+03
1.950646e+03,2.102017e+03
1.962217e+03,2.050472e+03
1.973787e+03,2.038817e+03
1.985358e+03,1.994085e+03
1.996929e+03,1.967586e+03
2.008500e+03,1.931310e+03
2.020071e+03,1.901703e+03
2.031641e+03,1.873746e+03
2.043212e+03,1.832733e+03
2.054783e+03,1.802918e+03
2.066354e+03,1.761144e+03
2.077925e+03,1.743078e+03
2.089496e+03,1.716570e+03
2.101066e+03,1.703302e+03
2.112637e+03,1.673721e+03
2.124208e+03,1.636930e+03
2.135779e+03,1.624534e+03
2.147350e+03,1.577305e+03
2.158920e+03,1.582588e+03
2.170491e+03,1.537059e+03
2.182062e+03,1.527942e+03
2.193633e+03,1.504016e+03
2.205204e+03,1.460163e+03
2.216774e+03,1.472338e+03
2.228345e+03,1.418636e+03
2.239916e+03,1.422993e+03
2.251487e+03,1.410032e+03
2.263058e+03,1.374592e+03
2.274628e+03,1.345966e+03
2.286199e+03,1.331982e+03
2.297770e+03,1.315718e+03
2.309341e+03,1.309785e+03
2.320912e+03,1.301428e+03
2.332482e+03,1.264316e+03
2.344053e+03,1.279486e+03
2.355624e+03,1.248126e+03
2.367195e+03,1.236342e+03
2.378766e+03,1.210654e+03
2.390336e+03,1.193067e+03
2.401907e+03,1.188489e+03
2.413478e+03,1.173565e+03
2.425049e+03,1.164979e+03
2.436620e+03,1.174571e+03
2.448190e+03,1.138477e+03
2.459761e+03,1.122268e+03
2.471332e+03,1.115050e+03
2.482903e+03,1.110486e+03
2.494474e+03,1.105445e+03
2.506044e+03,1.075043e+03
2.517615e+03,1.070610e+03
2.529186e+03,1.063362e+03
2.540757e+03,1.063985e+03
2.552328e+03,1.049250e+03
2.563898e+03,1.037318e+03
2.575469e+03,1.031223e+03
2.587040e+03,1.019453e+03
2.598611e+03,1.013269e+03
2.610182e+03,1.000856e+03
2.621752e+03,1.010637e+03
2.633323e+03,9.969557e+02
2.644894e+03,1.010068e+03
2.656465e+03,1.001562e+03
2.668036e+03,9.859244e+02
2.679606e+03,9.640242e+02
2.691177e+03,9.659709e+02
2.702748e+03,9.694908e+02
2.714319e+03,9.381422e+02
2.725890e+03,9.353885e+02
2.737460e+03,9.415234e+02
2.749031e+03,9.261949e+02
2.760602e+03,9.202601e+02
2.772173e+03,9.054400e+02
2.783744e+03,8.906154e+02
2.795314e+03,8.848817e+02
2.806885e+03,8.973051e+02
2.818456e+03,9.031647e+02
2.830027e+03,8.798400e+02
2.841598e+03,8.665405e+02
2.853168e+03,8.813391e+02
2.864739e+03,8.823490e+02
2.876310e+03,8.622586e+02
2.887881e+03,8.767169e+02
2.899452e+03,8.606390e+02
2.911022e+03,8.663715e+02
2.922593e+03,8.539092e+02
2.934164e+03,8.420219e+02
2.945735e+03,8.463031e+02
2.957306e+03,8.701244e+02
2.968876e+03,8.276984e+02
2.980447e+03,8.020830e+02
2.992018e+03,7.855766e+02
3.003589e+03,7.870505e+02
3.015160e+03,7.741071e+02
3.026730e+03,7.649553e+02
3.038301e+03,7.988525e+02
3.049872e+03,7.624702e+02
3.061443e+03,7.478814e+02
3.073014e+03,7.852016e+02
3.084584e+03,7.235116e+02
3.096155e+03,7.545507e+02
3.107726e+03,7.389785e+02
3.119297e+03,7.558321e+02
3.130868e+03,7.537744e+02
3.142438e+03,7.394659e+02
3.154009e+03,7.188261e+02
3.165580e+03,7.537480e+02
3.177151e+03,7.414980e+02
3.188722e+03,7.720915e+02
3.200292e+03,7.788405e+02
3.211863e+03,0.000000e+00
3.223434e+03,0.000000e+00
3.235005e+03,0.000000e+00
3.246576e+03,0.000000e+00
3.258146e+03,0.000000e+00
3.269717e+03,0.000000e+00
3.281288e+03,0.000000e+00
3.292859e+03,0.000000e+00
3.304430e+03,0.000000e+00
3.316000e+03,0.000000e+00
3.327571e+03,0.000000e+00
3.339142e+03,0.000000e+00
3.350713e+03,0.000000e+00
3.362284e+03,0.000000e+00
3.373854e+03,0.000000e+00
3.385425e+03,0.000000e+00
3.396996e+03,0.000000e+00
3.408567e+03,0.000000e+00
3.420138e+03,0.000000e+00
3.431708e+03,0.000000e+00
3.443279e+03,0.000000e+00
3.454850e+03,0.000000e+00
3.466421e+03,0.000000e+00
3.477992e+03,0.000000e+00
3.489563e+03,0.000000e+00
3.500169e+03,0.000000e+00