File: RAMAN_data/13112023_r1/black fibre7.CSV
9.931763e+01,0.000000e+00
1.108884e+02,0.000000e+00
1.224592e+02,0.000000e+00
1.340300e+02,0.000000e+00
1.456008e+02,0.000000e+00
1.571716e+02,0.000000e+00
1.687424e+02,0.000000e+00
1.803132e+02,0.000000e+00
1.918840e+02,0.000000e+00
2.034548e+02,6.272838e+03
2.150256e+02,6.320380e+03
2.265964e+02,6.302061e+03
2.381673e+02,6.353616e+03
2.497381e+02,6.353256e+03
2.613088e+02,6.366967e+03
2.728796e+02,6.371021e+03
2.844504e+02,6.400960e+03
2.960212e+02,6.387042e+03
3.075920e+02,6.419688e+03
3.191628e+02,6.421353e+03
3.307336e+02,6.434368e+03
3.423044e+02,6.433354e+03
3.538752e+02,6.417046e+03
3.654461e+02,6.406995e+03
3.770169e+02,6.451382e+03
3.885877e+02,6.415363e+03
4.001585e+02,6.427513e+03
4.117293e+02,6.387875e+03
4.233001e+02,6.395016e+03
4.348709e+02,6.380368e+03
4.464417e+02,6.360741e+03
4.580125e+02,6.347452e+03
4.695833e+02,6.347618e+03
4.811541e+02,6.321675e+03
4.927249e+02,6.313174e+03
5.042957e+02,6.301700e+03
5.158665e+02,6.273854e+03
5.274373e+02,6.258248e+03
5.390081e+02,6.214384e+03
5.505789e+02,6.194834e+03
5.621497e+02,6.192032e+03
5.737205e+02,6.165503e+03
5.852913e+02,6.139521e+03
5.968621e+02,6.120518e+03
6.084329e+02,6.101795e+03
6.200037e+02,6.073523e+03
6.315745e+02,6.050157e+03
6.431453e+02,6.029782e+03
6.547161e+02,6.002977e+03
6.662869e+02,5.997055e+03
6.778577e+02,5.939497e+03
6.894285e+02,5.894745e+03
7.009993e+02,5.890975e+03
7.125701e+02,5.879901e+03
7.241409e+02,5.806611e+03
7.357117e+02,5.798663e+03
7.472825e+02,5.807373e+03
7.588533e+02,5.760419e+03
7.704241e+02,5.705469e+03
7.819949e+02,5.689649e+03
7.935657e+02,5.649067e+03
8.051365e+02,5.631538e+03
8.167073e+02,5.578958e+03
8.282781e+02,5.555782e+03
8.398489e+02,5.548000e+03
8.514197e+02,5.496551e+03
8.629905e+02,5.468524e+03
8.745613e+02,5.430774e+03
8.861321e+02,5.432209e+03
8.977029e+02,5.376970e+03
9.092737e+02,5.332922e+03
9.208445e+02,5.297136e+03
9.324153e+02,5.305290e+03
9.439861e+02,5.251684e+03
9.555569e+02,5.190220e+03
9.671277e+02,5.174622e+03
9.786985e+02,5.176323e+03
9.902693e+02,5.120366e+03
1.001840e+03,5.099155e+03
1.013411e+03,5.067489e+03
1.024982e+03,5.049078e+03
1.036552e+03,5.035246e+03
1.048123e+03,4.984179e+03
1.059694e+03,4.987776e+03
1.071265e+03,4.965189e+03
1.082836e+03,4.907259e+03
1.094406e+03,4.911698e+03
1.105977e+03,4.878317e+03
1.117548e+03,4.875970e+03
1.129119e+03,4.841644e+03
1.140690e+03,4.797104e+03
1.152261e+03,4.797225e+03
1.163831e+03,4.741106e+03
1.175402e+03,4.720825e+03
1.186973e+03,4.680833e+03
1.198544e+03,4.684204e+03
1.210115e+03,4.633978e+03
1.221685e+03,4.627467e+03
1.233256e+03,4.595584e+03
1.244827e+03,4.608986e+03
1.256398e+03,4.570069e+03
1.267969e+03,4.532933e+03
1.279539e+03,4.506238e+03
1.291110e+03,4.502591e+03
1.302681e+03,4.449510e+03
1.314252e+03,4.422295e+03
1.325823e+03,4.388545e+03
1.337393e+03,4.419296e+03
1.348964e+03,4.380491e+03
1.360535e+03,4.345385e+03
1.372106e+03,4.317193e+03
1.383677e+03,4.322159e+03
1.395247e+03,4.272127e+03
1.406818e+03,4.247106e+03
1.418389e+03,4.219144e+03
1.429960e+03,4.183080e+03
1.441531e+03,4.166622e+03
1.453101e+03,4.135889e+03
1.464672e+03,4.109835e+03
1.476243e+03,4.108393e+03
1.487814e+03,4.088605e+03
1.499385e+03,4.051831e+03
1.510955e+03,4.032541e+03
1.522526e+03,4.003274e+03
1.534097e+03,3.974239e+03
1.545668e+03,3.955128e+03
1.557239e+03,3.949570e+03
1.568809e+03,3.935370e+03
1.580380e+03,3.918997e+03
1.591951e+03,3.922631e+03
1.603522e+03,3.862737e+03
1.615093e+03,3.819195e+03
1.626663e+03,3.790656e+03
1.638234e+03,3.743052e+03
1.649805e+03,3.736434e+03
1.661376e+03,3.702282e+03
1.672947e+03,3.684474e+03
1.684517e+03,3.650081e+03
1.696088e+03,3.645955e+03
1.707659e+03,3.610881e+03
1.719230e+03,3.562114e+03
1.730801e+03,3.537851e+03
1.742371e+03,3.530000e+03
1.753942e+03,3.498750e+03
1.765513e+03,3.471985e+03
1.777084e+03,3.458655e+03
1.788655e+03,3.432676e+03
1.800225e+03,3.425046e+03
1.811796e+03,3.362010e+03
1.823367e+03,3.333589e+03
1.834938e+03,3.315206e+03
1.846509e+03,3.312511e+03
1.858079e+03,3.275461e+03
1.869650e+03,3.219416e+03
1.881221e+03,3.210970e+03
1.892792e+03,3.192457e+03
1.904363e+03,3.173469e+03
1.915933e+03,3.134067e+03
1.927504e+03,3.114215e+03
1.939075e+03,3.072586e+03
1.950646e+03,3.043420e+03
1.962217e+03,3.009962e+03
1.973787e+03,3.002114e+03
1.985358e+03,2.961474e+03
1.996929e+03,2.945004e+03
2.008500e+03,2.902656e+03
2.020071e+03,2.884087e+03
2.031641e+03,2.859958e+03
2.043212e+03,2.807026e+03
2.054783e+03,2.784015e+03
2.066354e+03,2.790603e+03
2.077925e+03,2.754111e+03
2.089496e+03,2.730915e+03
2.101066e+03,2.700126e+03
2.112637e+03,2.644650e+03
2.124208e+03,2.666338e+03
2.135779e+03,2.610398e+03
2.147350e+03,2.581569e+03
2.158920e+03,2.554203e+03
2.170491e+03,2.514944e+03
2.182062e+03,2.513893e+03
2.193633e+03,2.472132e+03
2.205204e+03,2.465047e+03
2.216774e+03,2.427333e+03
2.228345e+03,2.400584e+03
2.239916e+03,2.371906e+03
2.251487e+03,2.327449e+03
2.263058e+03,2.327094e+03
2.274628e+03,2.307632e+03
2.286199e+03,2.254879e+03
2.297770e+03,2.265388e+03
2.309341e+03,2.210254e+03
2.320912e+03,2.198518e+03
2.332482e+03,2.149021e+03
2.344053e+03,2.155575e+03
2.355624e+03,2.097610e+03
2.367195e+03,2.098988e+03
2.378766e+03,2.070520e+03
2.390336e+03,2.046331e+03
2.401907e+03,2.014126e+03
2.413478e+03,1.991766e+03
2.425049e+03,2.001248e+03
2.436620e+03,1.971487e+03
2.448190e+03,1.948236e+03
2.459761e+03,1.930583e+03
2.471332e+03,1.896735e+03
2.482903e+03,1.885546e+03
2.494474e+03,1.864941e+03
2.506044e+03,1.839384e+03
2.517615e+03,1.816181e+03
2.529186e+03,1.816317e+03
2.540757e+03,1.774151e+03
2.552328e+03,1.782152e+03
2.563898e+03,1.765654e+03
2.575469e+03,1.746754e+03
2.587040e+03,1.735075e+03
2.598611e+03,1.703736e+03
2.610182e+03,1.695743e+03
2.621752e+03,1.680624e+03
2.633323e+03,1.673598e+03
2.644894e+03,1.659427e+03
2.656465e+03,1.646614e+03
2.668036e+03,1.634195e+03
2.679606e+03,1.617508e+03
2.691177e+03,1.592699e+03
2.702748e+03,1.567148e+03
2.714319e+03,1.556053e+03
2.725890e+03,1.556266e+03
2.737460e+03,1.529654e+03
2.749031e+03,1.515246e+03
2.760602e+03,1.512505e+03
2.772173e+03,1.492273e+03
2.783744e+03,1.451777e+03
2.795314e+03,1.457079e+03
2.806885e+03,1.467661e+03
2.818456e+03,1.441003e+03
2.830027e+03,1.446184e+03
2.841598e+03,1.415988e+03
2.853168e+03,1.440427e+03
2.864739e+03,1.416595e+03
2.876310e+03,1.428997e+03
2.887881e+03,1.404961e+03
2.899452e+03,1.407429e+03
2.911022e+03,1.377718e+03
2.922593e+03,1.374037e+03
2.934164e+03,1.334224e+03
2.945735e+03,1.362424e+03
2.957306e+03,1.395129e+03
2.968876e+03,1.327650e+03
2.980447e+03,1.329208e+03
2.992018e+03,1.341695e+03
3.003589e+03,1.283071e+03
3.015160e+03,1.300711e+03
3.026730e+03,1.285639e+03
3.038301e+03,1.290685e+03
3.049872e+03,1.250946e+03
3.061443e+03,1.296068e+03
3.073014e+03,1.223443e+03
3.084584e+03,1.216911e+03
3.096155e+03,1.244420e+03
3.107726e+03,1.217877e+03
3.119297e+03,1.226188e+03
3.130868e+03,1.229123e+03
3.142438e+03,1.239607e+03
3.154009e+03,1.214105e+03
3.165580e+03,1.256522e+03
3.177151e+03,1.263698e+03
3.188722e+03,1.235384e+03
3.200292e+03,1.250598e+03
3.211863e+03,0.000000e+00
3.223434e+03,0.000000e+00
3.235005e+03,0.000000e+00
3.246576e+03,0.000000e+00
3.258146e+03,0.000000e+00
3.269717e+03,0.000000e+00
3.281288e+03,0.000000e+00
3.292859e+03,0.000000e+00
3.304430e+03,0.000000e+00
3.316000e+03,0.000000e+00
3.327571e+03,0.000000e+00
3.339142e+03,0.000000e+00
3.350713e+03,0.000000e+00
3.362284e+03,0.000000e+00
3.373854e+03,0.000000e+00
3.385425e+03,0.000000e+00
3.396996e+03,0.000000e+00
3.408567e+03,0.000000e+00
3.420138e+03,0.000000e+00
3.431708e+03,0.000000e+00
3.443279e+03,0.000000e+00
3.454850e+03,0.000000e+00
3.466421e+03,0.000000e+00
3.477992e+03,0.000000e+00
3.489563e+03,0.000000e+00
3.500169e+03,0.000000e+00