File: RAMAN_data/13112023_r1/black fibre4.CSV
9.931763e+01,0.000000e+00
1.108884e+02,0.000000e+00
1.224592e+02,0.000000e+00
1.340300e+02,0.000000e+00
1.456008e+02,0.000000e+00
1.571716e+02,0.000000e+00
1.687424e+02,0.000000e+00
1.803132e+02,0.000000e+00
1.918840e+02,0.000000e+00
2.034548e+02,1.052034e+04
2.150256e+02,1.057994e+04
2.265964e+02,1.068749e+04
2.381673e+02,1.083688e+04
2.497381e+02,1.092293e+04
2.613088e+02,1.102010e+04
2.728796e+02,1.114520e+04
2.844504e+02,1.128402e+04
2.960212e+02,1.139113e+04
3.075920e+02,1.148884e+04
3.191628e+02,1.160888e+04
3.307336e+02,1.175929e+04
3.423044e+02,1.189110e+04
3.538752e+02,1.203903e+04
3.654461e+02,1.215143e+04
3.770169e+02,1.231209e+04
3.885877e+02,1.246715e+04
4.001585e+02,1.258653e+04
4.117293e+02,1.267844e+04
4.233001e+02,1.278053e+04
4.348709e+02,1.288537e+04
4.464417e+02,1.298831e+04
4.580125e+02,1.304035e+04
4.695833e+02,1.310159e+04
4.811541e+02,1.314698e+04
4.927249e+02,1.318878e+04
5.042957e+02,1.316454e+04
5.158665e+02,1.315240e+04
5.274373e+02,1.317985e+04
5.390081e+02,1.314591e+04
5.505789e+02,1.312939e+04
5.621497e+02,1.308740e+04
5.737205e+02,1.301971e+04
5.852913e+02,1.300030e+04
5.968621e+02,1.297792e+04
6.084329e+02,1.292408e+04
6.200037e+02,1.286163e+04
6.315745e+02,1.278395e+04
6.431453e+02,1.273241e+04
6.547161e+02,1.268126e+04
6.662869e+02,1.263176e+04
6.778577e+02,1.250997e+04
6.894285e+02,1.243310e+04
7.009993e+02,1.237393e+04
7.125701e+02,1.229692e+04
7.241409e+02,1.226400e+04
7.357117e+02,1.217150e+04
7.472825e+02,1.216208e+04
7.588533e+02,1.203679e+04
7.704241e+02,1.194359e+04
7.819949e+02,1.187176e+04
7.935657e+02,1.187340e+04
8.051365e+02,1.175910e+04
8.167073e+02,1.169690e+04
8.282781e+02,1.168714e+04
8.398489e+02,1.162113e+04
8.514197e+02,1.151002e+04
8.629905e+02,1.139511e+04
8.745613e+02,1.135543e+04
8.861321e+02,1.132621e+04
8.977029e+02,1.123507e+04
9.092737e+02,1.114283e+04
9.208445e+02,1.107041e+04
9.324153e+02,1.103271e+04
9.439861e+02,1.092350e+04
9.555569e+02,1.082402e+04
9.671277e+02,1.078666e+04
9.786985e+02,1.072445e+04
9.902693e+02,1.063315e+04
1.001840e+03,1.057395e+04
1.013411e+03,1.052664e+04
1.024982e+03,1.046652e+04
1.036552e+03,1.042178e+04
1.048123e+03,1.032377e+04
1.059694e+03,1.027857e+04
1.071265e+03,1.025386e+04
1.082836e+03,1.021109e+04
1.094406e+03,1.012283e+04
1.105977e+03,1.008021e+04
1.117548e+03,1.009917e+04
1.129119e+03,1.006368e+04
1.140690e+03,9.970667e+03
1.152261e+03,1.000359e+04
1.163831e+03,9.870155e+03
1.175402e+03,9.786403e+03
1.186973e+03,9.759818e+03
1.198544e+03,9.701303e+03
1.210115e+03,9.665016e+03
1.221685e+03,9.620900e+03
1.233256e+03,9.556071e+03
1.244827e+03,9.573584e+03
1.256398e+03,9.522997e+03
1.267969e+03,9.489280e+03
1.279539e+03,9.485221e+03
1.291110e+03,9.371672e+03
1.302681e+03,9.292905e+03
1.314252e+03,9.223999e+03
1.325823e+03,9.200419e+03
1.337393e+03,9.209094e+03
1.348964e+03,9.175710e+03
1.360535e+03,9.127353e+03
1.372106e+03,9.063451e+03
1.383677e+03,9.005608e+03
1.395247e+03,8.924437e+03
1.406818e+03,8.922053e+03
1.418389e+03,8.857056e+03
1.429960e+03,8.766423e+03
1.441531e+03,8.715752e+03
1.453101e+03,8.645009e+03
1.464672e+03,8.616896e+03
1.476243e+03,8.586223e+03
1.487814e+03,8.571642e+03
1.499385e+03,8.489622e+03
1.510955e+03,8.419175e+03
1.522526e+03,8.369184e+03
1.534097e+03,8.321385e+03
1.545668e+03,8.273789e+03
1.557239e+03,8.256718e+03
1.568809e+03,8.239216e+03
1.580380e+03,8.203983e+03
1.591951e+03,8.146623e+03
1.603522e+03,8.043296e+03
1.615093e+03,7.954144e+03
1.626663e+03,7.914990e+03
1.638234e+03,7.809787e+03
1.649805e+03,7.764117e+03
1.661376e+03,7.678427e+03
1.672947e+03,7.605142e+03
1.684517e+03,7.552693e+03
1.696088e+03,7.510583e+03
1.707659e+03,7.471433e+03
1.719230e+03,7.348581e+03
1.730801e+03,7.319665e+03
1.742371e+03,7.265999e+03
1.753942e+03,7.241597e+03
1.765513e+03,7.183109e+03
1.777084e+03,7.123429e+03
1.788655e+03,7.001116e+03
1.800225e+03,6.982889e+03
1.811796e+03,6.878818e+03
1.823367e+03,6.811320e+03
1.834938e+03,6.766381e+03
1.846509e+03,6.745948e+03
1.858079e+03,6.644816e+03
1.869650e+03,6.550245e+03
1.881221e+03,6.495708e+03
1.892792e+03,6.463458e+03
1.904363e+03,6.385532e+03
1.915933e+03,6.306291e+03
1.927504e+03,6.293369e+03
1.939075e+03,6.183050e+03
1.950646e+03,6.122548e+03
1.962217e+03,6.068594e+03
1.973787e+03,6.001794e+03
1.985358e+03,5.962210e+03
1.996929e+03,5.898226e+03
2.008500e+03,5.822708e+03
2.020071e+03,5.731308e+03
2.031641e+03,5.711275e+03
2.043212e+03,5.626162e+03
2.054783e+03,5.536519e+03
2.066354e+03,5.459867e+03
2.077925e+03,5.423394e+03
2.089496e+03,5.398615e+03
2.101066e+03,5.311808e+03
2.112637e+03,5.261611e+03
2.124208e+03,5.212569e+03
2.135779e+03,5.145060e+03
2.147350e+03,5.040010e+03
2.158920e+03,5.021234e+03
2.170491e+03,4.949152e+03
2.182062e+03,4.902043e+03
2.193633e+03,4.832481e+03
2.205204e+03,4.801218e+03
2.216774e+03,4.727452e+03
2.228345e+03,4.637950e+03
2.239916e+03,4.611307e+03
2.251487e+03,4.577506e+03
2.263058e+03,4.511050e+03
2.274628e+03,4.442491e+03
2.286199e+03,4.380143e+03
2.297770e+03,4.371445e+03
2.309341e+03,4.280628e+03
2.320912e+03,4.250502e+03
2.332482e+03,4.193285e+03
2.344053e+03,4.172310e+03
2.355624e+03,4.123979e+03
2.367195e+03,4.066864e+03
2.378766e+03,4.023140e+03
2.390336e+03,3.972028e+03
2.401907e+03,3.914598e+03
2.413478e+03,3.872378e+03
2.425049e+03,3.833430e+03
2.436620e+03,3.789784e+03
2.448190e+03,3.749188e+03
2.459761e+03,3.708492e+03
2.471332e+03,3.658090e+03
2.482903e+03,3.644147e+03
2.494474e+03,3.594850e+03
2.506044e+03,3.535604e+03
2.517615e+03,3.536463e+03
2.529186e+03,3.492259e+03
2.540757e+03,3.415184e+03
2.552328e+03,3.400659e+03
2.563898e+03,3.382402e+03
2.575469e+03,3.354321e+03
2.587040e+03,3.313439e+03
2.598611e+03,3.263504e+03
2.610182e+03,3.242262e+03
2.621752e+03,3.190957e+03
2.633323e+03,3.179676e+03
2.644894e+03,3.170487e+03
2.656465e+03,3.138428e+03
2.668036e+03,3.112083e+03
2.679606e+03,3.055315e+03
2.691177e+03,3.026400e+03
2.702748e+03,2.981833e+03
2.714319e+03,2.957503e+03
2.725890e+03,2.932962e+03
2.737460e+03,2.936441e+03
2.749031e+03,2.873109e+03
2.760602e+03,2.852327e+03
2.772173e+03,2.829307e+03
2.783744e+03,2.780751e+03
2.795314e+03,2.751977e+03
2.806885e+03,2.745983e+03
2.818456e+03,2.726788e+03
2.830027e+03,2.660902e+03
2.841598e+03,2.681659e+03
2.853168e+03,2.655362e+03
2.864739e+03,2.637540e+03
2.876310e+03,2.631167e+03
2.887881e+03,2.599612e+03
2.899452e+03,2.590464e+03
2.911022e+03,2.606204e+03
2.922593e+03,2.548149e+03
2.934164e+03,2.548762e+03
2.945735e+03,2.536774e+03
2.957306e+03,2.527626e+03
2.968876e+03,2.441302e+03
2.980447e+03,2.426531e+03
2.992018e+03,2.413935e+03
3.003589e+03,2.371026e+03
3.015160e+03,2.365870e+03
3.026730e+03,2.379773e+03
3.038301e+03,2.375359e+03
3.049872e+03,2.345349e+03
3.061443e+03,2.314962e+03
3.073014e+03,2.321224e+03
3.084584e+03,2.290582e+03
3.096155e+03,2.293714e+03
3.107726e+03,2.244300e+03
3.119297e+03,2.294200e+03
3.130868e+03,2.257267e+03
3.142438e+03,2.253317e+03
3.154009e+03,2.243041e+03
3.165580e+03,2.275552e+03
3.177151e+03,2.274917e+03
3.188722e+03,2.273121e+03
3.200292e+03,2.305145e+03
3.211863e+03,0.000000e+00
3.223434e+03,0.000000e+00
3.235005e+03,0.000000e+00
3.246576e+03,0.000000e+00
3.258146e+03,0.000000e+00
3.269717e+03,0.000000e+00
3.281288e+03,0.000000e+00
3.292859e+03,0.000000e+00
3.304430e+03,0.000000e+00
3.316000e+03,0.000000e+00
3.327571e+03,0.000000e+00
3.339142e+03,0.000000e+00
3.350713e+03,0.000000e+00
3.362284e+03,0.000000e+00
3.373854e+03,0.000000e+00
3.385425e+03,0.000000e+00
3.396996e+03,0.000000e+00
3.408567e+03,0.000000e+00
3.420138e+03,0.000000e+00
3.431708e+03,0.000000e+00
3.443279e+03,0.000000e+00
3.454850e+03,0.000000e+00
3.466421e+03,0.000000e+00
3.477992e+03,0.000000e+00
3.489563e+03,0.000000e+00
3.500169e+03,0.000000e+00