File: RAMAN_data/13112023_r1/blue fibre2.CSV
9.931763e+01,0.000000e+00
1.108884e+02,0.000000e+00
1.224592e+02,0.000000e+00
1.340300e+02,0.000000e+00
1.456008e+02,0.000000e+00
1.571716e+02,0.000000e+00
1.687424e+02,0.000000e+00
1.803132e+02,0.000000e+00
1.918840e+02,0.000000e+00
2.034548e+02,1.052034e+04
2.150256e+02,1.057994e+04
2.265964e+02,1.068749e+04
2.381673e+02,1.083688e+04
2.497381e+02,1.092293e+04
2.613088e+02,1.102015e+04
2.728796e+02,1.108008e+04
2.844504e+02,1.112197e+04
2.960212e+02,1.112855e+04
3.075920e+02,1.114450e+04
3.191628e+02,1.108787e+04
3.307336e+02,1.102316e+04
3.423044e+02,1.097172e+04
3.538752e+02,1.091268e+04
3.654461e+02,1.083586e+04
3.770169e+02,1.082351e+04
3.885877e+02,1.074956e+04
4.001585e+02,1.069048e+04
4.117293e+02,1.064715e+04
4.233001e+02,1.062127e+04
4.348709e+02,1.059305e+04
4.464417e+02,1.052370e+04
4.580125e+02,1.035654e+04
4.695833e+02,1.026067e+04
4.811541e+02,1.024858e+04
4.927249e+02,1.008196e+04
5.042957e+02,9.998392e+03
5.158665e+02,9.887142e+03
5.274373e+02,9.784721e+03
5.390081e+02,9.626369e+03
5.505789e+02,9.564471e+03
5.621497e+02,9.464927e+03
5.737205e+02,9.358796e+03
5.852913e+02,9.269641e+03
5.968621e+02,9.171456e+03
6.084329e+02,9.076715e+03
6.200037e+02,8.995167e+03
6.315745e+02,8.897811e+03
6.431453e+02,8.812333e+03
6.547161e+02,8.750441e+03
6.662869e+02,8.673494e+03
6.778577e+02,8.587511e+03
6.894285e+02,8.513746e+03
7.009993e+02,8.477492e+03
7.125701e+02,8.403255e+03
7.241409e+02,8.323745e+03
7.357117e+02,8.247380e+03
7.472825e+02,8.227465e+03
7.588533e+02,8.190628e+03
7.704241e+02,8.087510e+03
7.819949e+02,8.015447e+03
7.935657e+02,7.974464e+03
8.051365e+02,7.899670e+03
8.167073e+02,7.825985e+03
8.282781e+02,7.781326e+03
8.398489e+02,7.721435e+03
8.514197e+02,7.681200e+03
8.629905e+02,7.618383e+03
8.745613e+02,7.561735e+03
8.861321e+02,7.499809e+03
8.977029e+02,7.441254e+03
9.092737e+02,7.362947e+03
9.208445e+02,7.281283e+03
9.324153e+02,7.251435e+03
9.439861e+02,7.161369e+03
9.555569e+02,7.126335e+03
9.671277e+02,7.035078e+03
9.786985e+02,7.023257e+03
9.902693e+02,6.929315e+03
1.001840e+03,6.862359e+03
1.013411e+03,6.819805e+03
1.024982e+03,6.761310e+03
1.036552e+03,6.661736e+03
1.048123e+03,6.607521e+03
1.059694e+03,6.562736e+03
1.071265e+03,6.483310e+03
1.082836e+03,6.431994e+03
1.094406e+03,6.354711e+03
1.105977e+03,6.300990e+03
1.117548e+03,6.250762e+03
1.129119e+03,6.175174e+03
1.140690e+03,6.089241e+03
1.152261e+03,6.046115e+03
1.163831e+03,5.991284e+03
1.175402e+03,5.919047e+03
1.186973e+03,5.865699e+03
1.198544e+03,5.828700e+03
1.210115e+03,5.765969e+03
1.221685e+03,5.724250e+03
1.233256e+03,5.664125e+03
1.244827e+03,5.624096e+03
1.256398e+03,5.533217e+03
1.267969e+03,5.479790e+03
1.279539e+03,5.415382e+03
1.291110e+03,5.356157e+03
1.302681e+03,5.333407e+03
1.314252e+03,5.304885e+03
1.325823e+03,5.265096e+03
1.337393e+03,5.218531e+03
1.348964e+03,5.168780e+03
1.360535e+03,5.095200e+03
1.372106e+03,5.054947e+03
1.383677e+03,4.982411e+03
1.395247e+03,4.935978e+03
1.406818e+03,4.887240e+03
1.418389e+03,4.826693e+03
1.429960e+03,4.782691e+03
1.441531e+03,4.739487e+03
1.453101e+03,4.684833e+03
1.464672e+03,4.664665e+03
1.476243e+03,4.594481e+03
1.487814e+03,4.562405e+03
1.499385e+03,4.511783e+03
1.510955e+03,4.480959e+03
1.522526e+03,4.429805e+03
1.534097e+03,4.392695e+03
1.545668e+03,4.336274e+03
1.557239e+03,4.322220e+03
1.568809e+03,4.293899e+03
1.580380e+03,4.242219e+03
1.591951e+03,4.220449e+03
1.603522e+03,4.185688e+03
1.615093e+03,4.142150e+03
1.626663e+03,4.102803e+03
1.638234e+03,4.069612e+03
1.649805e+03,4.000070e+03
1.661376e+03,3.953867e+03
1.672947e+03,3.922276e+03
1.684517e+03,3.881866e+03
1.696088e+03,3.861063e+03
1.707659e+03,3.820853e+03
1.719230e+03,3.770300e+03
1.730801e+03,3.738354e+03
1.742371e+03,3.677208e+03
1.753942e+03,3.654666e+03
1.765513e+03,3.618953e+03
1.777084e+03,3.574747e+03
1.788655e+03,3.583454e+03
1.800225e+03,3.530530e+03
1.811796e+03,3.504823e+03
1.823367e+03,3.444847e+03
1.834938e+03,3.424071e+03
1.846509e+03,3.394164e+03
1.858079e+03,3.377804e+03
1.869650e+03,3.307940e+03
1.881221e+03,3.272327e+03
1.892792e+03,3.250694e+03
1.904363e+03,3.228821e+03
1.915933e+03,3.186677e+03
1.927504e+03,3.165176e+03
1.939075e+03,3.139646e+03
1.950646e+03,3.094302e+03
1.962217e+03,3.059404e+03
1.973787e+03,3.040278e+03
1.985358e+03,3.012157e+03
1.996929e+03,2.984592e+03
2.008500e+03,2.946729e+03
2.020071e+03,2.892246e+03
2.031641e+03,2.858825e+03
2.043212e+03,2.847007e+03
2.054783e+03,2.805659e+03
2.066354e+03,2.805583e+03
2.077925e+03,2.768429e+03
2.089496e+03,2.719062e+03
2.101066e+03,2.689125e+03
2.112637e+03,2.674893e+03
2.124208e+03,2.643891e+03
2.135779e+03,2.613554e+03
2.147350e+03,2.566758e+03
2.158920e+03,2.556061e+03
2.170491e+03,2.539317e+03
2.182062e+03,2.512174e+03
2.193633e+03,2.475199e+03
2.205204e+03,2.451671e+03
2.216774e+03,2.442096e+03
2.228345e+03,2.388430e+03
2.239916e+03,2.332857e+03
2.251487e+03,2.348516e+03
2.263058e+03,2.322552e+03
2.274628e+03,2.290795e+03
2.286199e+03,2.263778e+03
2.297770e+03,2.252638e+03
2.309341e+03,2.201980e+03
2.320912e+03,2.177485e+03
2.332482e+03,2.149370e+03
2.344053e+03,2.145463e+03
2.355624e+03,2.098257e+03
2.367195e+03,2.094453e+03
2.378766e+03,2.059833e+03
2.390336e+03,2.054229e+03
2.401907e+03,2.021048e+03
2.413478e+03,2.009766e+03
2.425049e+03,1.975130e+03
2.436620e+03,1.962113e+03
2.448190e+03,1.939854e+03
2.459761e+03,1.910011e+03
2.471332e+03,1.908191e+03
2.482903e+03,1.915904e+03
2.494474e+03,1.857839e+03
2.506044e+03,1.852401e+03
2.517615e+03,1.829021e+03
2.529186e+03,1.830100e+03
2.540757e+03,1.793289e+03
2.552328e+03,1.789974e+03
2.563898e+03,1.788479e+03
2.575469e+03,1.768367e+03
2.587040e+03,1.748089e+03
2.598611e+03,1.731319e+03
2.610182e+03,1.703526e+03
2.621752e+03,1.675824e+03
2.633323e+03,1.689677e+03
2.644894e+03,1.718950e+03
2.656465e+03,1.672362e+03
2.668036e+03,1.656545e+03
2.679606e+03,1.623406e+03
2.691177e+03,1.605299e+03
2.702748e+03,1.612183e+03
2.714319e+03,1.608209e+03
2.725890e+03,1.596667e+03
2.737460e+03,1.590755e+03
2.749031e+03,1.585564e+03
2.760602e+03,1.545652e+03
2.772173e+03,1.578026e+03
2.783744e+03,1.528306e+03
2.795314e+03,1.523630e+03
2.806885e+03,1.545303e+03
2.818456e+03,1.486863e+03
2.830027e+03,1.528663e+03
2.841598e+03,1.497418e+03
2.853168e+03,1.504648e+03
2.864739e+03,1.489361e+03
2.876310e+03,1.456357e+03
2.887881e+03,1.492211e+03
2.899452e+03,1.446554e+03
2.911022e+03,1.465030e+03
2.922593e+03,1.458364e+03
2.934164e+03,1.446269e+03
2.945735e+03,1.446794e+03
2.957306e+03,1.429616e+03
2.968876e+03,1.385183e+03
2.980447e+03,1.420961e+03
2.992018e+03,1.434271e+03
3.003589e+03,1.400940e+03
3.015160e+03,1.401092e+03
3.026730e+03,1.341248e+03
3.038301e+03,1.403826e+03
3.049872e+03,1.377379e+03
3.061443e+03,1.419578e+03
3.073014e+03,1.363510e+03
3.084584e+03,1.383586e+03
3.096155e+03,1.373368e+03
3.107726e+03,1.383383e+03
3.119297e+03,1.369521e+03
3.130868e+03,1.388139e+03
3.142438e+03,1.374556e+03
3.154009e+03,1.415397e+03
3.165580e+03,1.375055e+03
3.177151e+03,1.431403e+03
3.188722e+03,1.443195e+03
3.200292e+03,1.417518e+03
3.211863e+03,0.000000e+00
3.223434e+03,0.000000e+00
3.235005e+03,0.000000e+00
3.246576e+03,0.000000e+00
3.258146e+03,0.000000e+00
3.269717e+03,0.000000e+00
3.281288e+03,0.000000e+00
3.292859e+03,0.000000e+00
3.304430e+03,0.000000e+00
3.316000e+03,0.000000e+00
3.327571e+03,0.000000e+00
3.339142e+03,0.000000e+00
3.350713e+03,0.000000e+00
3.362284e+03,0.000000e+00
3.373854e+03,0.000000e+00
3.385425e+03,0.000000e+00
3.396996e+03,0.000000e+00
3.408567e+03,0.000000e+00
3.420138e+03,0.000000e+00
3.431708e+03,0.000000e+00
3.443279e+03,0.000000e+00
3.454850e+03,0.000000e+00
3.466421e+03,0.000000e+00
3.477992e+03,0.000000e+00
3.489563e+03,0.000000e+00
3.500169e+03,0.000000e+00