File: RAMAN_data/13112023_r1/blue fibre4.CSV
9.931763e+01,0.000000e+00
1.108884e+02,0.000000e+00
1.224592e+02,0.000000e+00
1.340300e+02,0.000000e+00
1.456008e+02,0.000000e+00
1.571716e+02,0.000000e+00
1.687424e+02,0.000000e+00
1.803132e+02,0.000000e+00
1.918840e+02,0.000000e+00
2.034548e+02,4.933383e+03
2.150256e+02,4.957106e+03
2.265964e+02,4.971142e+03
2.381673e+02,5.016872e+03
2.497381e+02,5.035874e+03
2.613088e+02,5.041242e+03
2.728796e+02,5.085931e+03
2.844504e+02,5.097512e+03
2.960212e+02,5.093764e+03
3.075920e+02,5.124826e+03
3.191628e+02,5.132072e+03
3.307336e+02,5.157320e+03
3.423044e+02,5.145195e+03
3.538752e+02,5.144838e+03
3.654461e+02,5.160124e+03
3.770169e+02,5.186973e+03
3.885877e+02,5.144369e+03
4.001585e+02,5.126442e+03
4.117293e+02,5.154263e+03
4.233001e+02,5.141989e+03
4.348709e+02,5.133397e+03
4.464417e+02,5.155370e+03
4.580125e+02,5.138558e+03
4.695833e+02,5.086250e+03
4.811541e+02,5.108417e+03
4.927249e+02,5.112581e+03
5.042957e+02,5.082833e+03
5.158665e+02,5.074117e+03
5.274373e+02,5.053816e+03
5.390081e+02,5.027227e+03
5.505789e+02,5.038039e+03
5.621497e+02,5.024281e+03
5.737205e+02,4.989690e+03
5.852913e+02,4.971373e+03
5.968621e+02,4.945117e+03
6.084329e+02,4.957813e+03
6.200037e+02,4.919459e+03
6.315745e+02,4.897807e+03
6.431453e+02,4.890563e+03
6.547161e+02,4.874653e+03
6.662869e+02,4.843254e+03
6.778577e+02,4.807422e+03
6.894285e+02,4.801404e+03
7.009993e+02,4.787589e+03
7.125701e+02,4.736466e+03
7.241409e+02,4.745062e+03
7.357117e+02,4.718475e+03
7.472825e+02,4.694947e+03
7.588533e+02,4.661700e+03
7.704241e+02,4.639201e+03
7.819949e+02,4.626416e+03
7.935657e+02,4.579131e+03
8.051365e+02,4.583345e+03
8.167073e+02,4.554417e+03
8.282781e+02,4.530895e+03
8.398489e+02,4.527882e+03
8.514197e+02,4.483703e+03
8.629905e+02,4.442795e+03
8.745613e+02,4.422630e+03
8.861321e+02,4.414668e+03
8.977029e+02,4.356919e+03
9.092737e+02,4.328271e+03
9.208445e+02,4.299972e+03
9.324153e+02,4.286875e+03
9.439861e+02,4.268327e+03
9.555569e+02,4.225485e+03
9.671277e+02,4.210237e+03
9.786985e+02,4.192933e+03
9.902693e+02,4.146628e+03
1.001840e+03,4.110491e+03
1.013411e+03,4.090097e+03
1.024982e+03,4.078439e+03
1.036552e+03,4.057376e+03
1.048123e+03,4.023115e+03
1.059694e+03,3.984652e+03
1.071265e+03,3.993721e+03
1.082836e+03,3.970629e+03
1.094406e+03,3.963766e+03
1.105977e+03,3.930532e+03
1.117548e+03,3.900176e+03
1.129119e+03,3.867691e+03
1.140690e+03,3.842222e+03
1.152261e+03,3.820432e+03
1.163831e+03,3.771247e+03
1.175402e+03,3.740611e+03
1.186973e+03,3.714635e+03
1.198544e+03,3.719940e+03
1.210115e+03,3.683382e+03
1.221685e+03,3.639516e+03
1.233256e+03,3.596846e+03
1.244827e+03,3.584726e+03
1.256398e+03,3.589758e+03
1.267969e+03,3.552985e+03
1.279539e+03,3.530832e+03
1.291110e+03,3.534939e+03
1.302681e+03,3.498191e+03
1.314252e+03,3.469265e+03
1.325823e+03,3.457760e+03
1.337393e+03,3.449874e+03
1.348964e+03,3.410931e+03
1.360535e+03,3.375806e+03
1.372106e+03,3.354000e+03
1.383677e+03,3.332968e+03
1.395247e+03,3.307414e+03
1.406818e+03,3.286180e+03
1.418389e+03,3.270411e+03
1.429960e+03,3.232889e+03
1.441531e+03,3.214948e+03
1.453101e+03,3.162190e+03
1.464672e+03,3.178110e+03
1.476243e+03,3.143618e+03
1.487814e+03,3.128654e+03
1.499385e+03,3.104450e+03
1.510955e+03,3.074865e+03
1.522526e+03,3.052890e+03
1.534097e+03,3.029971e+03
1.545668e+03,3.000097e+03
1.557239e+03,3.012031e+03
1.568809e+03,3.001423e+03
1.580380e+03,2.969774e+03
1.591951e+03,2.947915e+03
1.603522e+03,2.936555e+03
1.615093e+03,2.905000e+03
1.626663e+03,2.887836e+03
1.638234e+03,2.856542e+03
1.649805e+03,2.837084e+03
1.661376e+03,2.805524e+03
1.672947e+03,2.791450e+03
1.684517e+03,2.748035e+03
1.696088e+03,2.743783e+03
1.707659e+03,2.708427e+03
1.719230e+03,2.700128e+03
1.730801e+03,2.702680e+03
1.742371e+03,2.669099e+03
1.753942e+03,2.654668e+03
1.765513e+03,2.643790e+03
1.777084e+03,2.611300e+03
1.788655e+03,2.586752e+03
1.800225e+03,2.572804e+03
1.811796e+03,2.566785e+03
1.823367e+03,2.521191e+03
1.834938e+03,2.517594e+03
1.846509e+03,2.504604e+03
1.858079e+03,2.472364e+03
1.869650e+03,2.455706e+03
1.881221e+03,2.406879e+03
1.892792e+03,2.414513e+03
1.904363e+03,2.400882e+03
1.915933e+03,2.374119e+03
1.927504e+03,2.358572e+03
1.939075e+03,2.324648e+03
1.950646e+03,2.280937e+03
1.962217e+03,2.294239e+03
1.973787e+03,2.249884e+03
1.985358e+03,2.260337e+03
1.996929e+03,2.199577e+03
2.008500e+03,2.196867e+03
2.020071e+03,2.183605e+03
2.031641e+03,2.154862e+03
2.043212e+03,2.111594e+03
2.054783e+03,2.102648e+03
2.066354e+03,2.084921e+03
2.077925e+03,2.054371e+03
2.089496e+03,2.040114e+03
2.101066e+03,2.026424e+03
2.112637e+03,1.990481e+03
2.124208e+03,1.987301e+03
2.135779e+03,1.973928e+03
2.147350e+03,1.917885e+03
2.158920e+03,1.891583e+03
2.170491e+03,1.873343e+03
2.182062e+03,1.845966e+03
2.193633e+03,1.849689e+03
2.205204e+03,1.820440e+03
2.216774e+03,1.797898e+03
2.228345e+03,1.775680e+03
2.239916e+03,1.736941e+03
2.251487e+03,1.758183e+03
2.263058e+03,1.699533e+03
2.274628e+03,1.688848e+03
2.286199e+03,1.657412e+03
2.297770e+03,1.655474e+03
2.309341e+03,1.623017e+03
2.320912e+03,1.597543e+03
2.332482e+03,1.575798e+03
2.344053e+03,1.568744e+03
2.355624e+03,1.543535e+03
2.367195e+03,1.536639e+03
2.378766e+03,1.500259e+03
2.390336e+03,1.478695e+03
2.401907e+03,1.462633e+03
2.413478e+03,1.443561e+03
2.425049e+03,1.424669e+03
2.436620e+03,1.406338e+03
2.448190e+03,1.396011e+03
2.459761e+03,1.366896e+03
2.471332e+03,1.365990e+03
2.482903e+03,1.361153e+03
2.494474e+03,1.328320e+03
2.506044e+03,1.304236e+03
2.517615e+03,1.305049e+03
2.529186e+03,1.286537e+03
2.540757e+03,1.278494e+03
2.552328e+03,1.271868e+03
2.563898e+03,1.252844e+03
2.575469e+03,1.247440e+03
2.587040e+03,1.211733e+03
2.598611e+03,1.187803e+03
2.610182e+03,1.180042e+03
2.621752e+03,1.189328e+03
2.633323e+03,1.175388e+03
2.644894e+03,1.157933e+03
2.656465e+03,1.149003e+03
2.668036e+03,1.127121e+03
2.679606e+03,1.121335e+03
2.691177e+03,1.111352e+03
2.702748e+03,1.106056e+03
2.714319e+03,1.091634e+03
2.725890e+03,1.099238e+03
2.737460e+03,1.087469e+03
2.749031e+03,1.066373e+03
2.760602e+03,1.070234e+03
2.772173e+03,1.054008e+03
2.783744e+03,1.028632e+03
2.795314e+03,1.001704e+03
2.806885e+03,1.011930e+03
2.818456e+03,9.859887e+02
2.830027e+03,9.911981e+02
2.841598e+03,9.942631e+02
2.853168e+03,1.009846e+03
2.864739e+03,9.873961e+02
2.876310e+03,9.994700e+02
2.887881e+03,9.686375e+02
2.899452e+03,9.833643e+02
2.911022e+03,9.722516e+02
2.922593e+03,9.655026e+02
2.934164e+03,9.533152e+02
2.945735e+03,9.397158e+02
2.957306e+03,1.012361e+03
2.968876e+03,9.381785e+02
2.980447e+03,9.148071e+02
2.992018e+03,8.957878e+02
3.003589e+03,8.855948e+02
3.015160e+03,8.831800e+02
3.026730e+03,8.622798e+02
3.038301e+03,8.672205e+02
3.049872e+03,8.779254e+02
3.061443e+03,9.029862e+02
3.073014e+03,8.515899e+02
3.084584e+03,8.441127e+02
3.096155e+03,8.779830e+02
3.107726e+03,8.666450e+02
3.119297e+03,8.689332e+02
3.130868e+03,8.577155e+02
3.142438e+03,8.582721e+02
3.154009e+03,8.698541e+02
3.165580e+03,8.508484e+02
3.177151e+03,8.463196e+02
3.188722e+03,8.795449e+02
3.200292e+03,8.749597e+02
3.211863e+03,0.000000e+00
3.223434e+03,0.000000e+00
3.235005e+03,0.000000e+00
3.246576e+03,0.000000e+00
3.258146e+03,0.000000e+00
3.269717e+03,0.000000e+00
3.281288e+03,0.000000e+00
3.292859e+03,0.000000e+00
3.304430e+03,0.000000e+00
3.316000e+03,0.000000e+00
3.327571e+03,0.000000e+00
3.339142e+03,0.000000e+00
3.350713e+03,0.000000e+00
3.362284e+03,0.000000e+00
3.373854e+03,0.000000e+00
3.385425e+03,0.000000e+00
3.396996e+03,0.000000e+00
3.408567e+03,0.000000e+00
3.420138e+03,0.000000e+00
3.431708e+03,0.000000e+00
3.443279e+03,0.000000e+00
3.454850e+03,0.000000e+00
3.466421e+03,0.000000e+00
3.477992e+03,0.000000e+00
3.489563e+03,0.000000e+00
3.500169e+03,0.000000e+00