File: RAMAN_data/13112023_r1/blue fibre6.CSV
9.931763e+01,0.000000e+00
1.108884e+02,0.000000e+00
1.224592e+02,0.000000e+00
1.340300e+02,0.000000e+00
1.456008e+02,0.000000e+00
1.571716e+02,0.000000e+00
1.687424e+02,0.000000e+00
1.803132e+02,0.000000e+00
1.918840e+02,0.000000e+00
2.034548e+02,3.097786e+03
2.150256e+02,3.076555e+03
2.265964e+02,3.128347e+03
2.381673e+02,3.137034e+03
2.497381e+02,3.193086e+03
2.613088e+02,3.195457e+03
2.728796e+02,3.203101e+03
2.844504e+02,3.224590e+03
2.960212e+02,3.230206e+03
3.075920e+02,3.234311e+03
3.191628e+02,3.268460e+03
3.307336e+02,3.276478e+03
3.423044e+02,3.286847e+03
3.538752e+02,3.301578e+03
3.654461e+02,3.302597e+03
3.770169e+02,3.321737e+03
3.885877e+02,3.331757e+03
4.001585e+02,3.325621e+03
4.117293e+02,3.329438e+03
4.233001e+02,3.333916e+03
4.348709e+02,3.348177e+03
4.464417e+02,3.375825e+03
4.580125e+02,3.360115e+03
4.695833e+02,3.376428e+03
4.811541e+02,3.432801e+03
4.927249e+02,3.385998e+03
5.042957e+02,3.378345e+03
5.158665e+02,3.390021e+03
5.274373e+02,3.406398e+03
5.390081e+02,3.357125e+03
5.505789e+02,3.379742e+03
5.621497e+02,3.405387e+03
5.737205e+02,3.381169e+03
5.852913e+02,3.413489e+03
5.968621e+02,3.401513e+03
6.084329e+02,3.377801e+03
6.200037e+02,3.384950e+03
6.315745e+02,3.383656e+03
6.431453e+02,3.371478e+03
6.547161e+02,3.368926e+03
6.662869e+02,3.382767e+03
6.778577e+02,3.521731e+03
6.894285e+02,3.372011e+03
7.009993e+02,3.390878e+03
7.125701e+02,3.395125e+03
7.241409e+02,3.365386e+03
7.357117e+02,3.357455e+03
7.472825e+02,3.458706e+03
7.588533e+02,3.349843e+03
7.704241e+02,3.321278e+03
7.819949e+02,3.360083e+03
7.935657e+02,3.333606e+03
8.051365e+02,3.333158e+03
8.167073e+02,3.312625e+03
8.282781e+02,3.337696e+03
8.398489e+02,3.317676e+03
8.514197e+02,3.298452e+03
8.629905e+02,3.285492e+03
8.745613e+02,3.270056e+03
8.861321e+02,3.249015e+03
8.977029e+02,3.225327e+03
9.092737e+02,3.216487e+03
9.208445e+02,3.205114e+03
9.324153e+02,3.212931e+03
9.439861e+02,3.196156e+03
9.555569e+02,3.210711e+03
9.671277e+02,3.180243e+03
9.786985e+02,3.150181e+03
9.902693e+02,3.140290e+03
1.001840e+03,3.131685e+03
1.013411e+03,3.113092e+03
1.024982e+03,3.115270e+03
1.036552e+03,3.090333e+03
1.048123e+03,3.072634e+03
1.059694e+03,3.067313e+03
1.071265e+03,3.061850e+03
1.082836e+03,3.048989e+03
1.094406e+03,3.028494e+03
1.105977e+03,3.049940e+03
1.117548e+03,3.012449e+03
1.129119e+03,2.999206e+03
1.140690e+03,3.048080e+03
1.152261e+03,2.977840e+03
1.163831e+03,2.974715e+03
1.175402e+03,2.937760e+03
1.186973e+03,2.937145e+03
1.198544e+03,2.923596e+03
1.210115e+03,2.918223e+03
1.221685e+03,2.874806e+03
1.233256e+03,2.856101e+03
1.244827e+03,2.826225e+03
1.256398e+03,2.794544e+03
1.267969e+03,2.786981e+03
1.279539e+03,2.782130e+03
1.291110e+03,2.789803e+03
1.302681e+03,2.811096e+03
1.314252e+03,2.753239e+03
1.325823e+03,2.764046e+03
1.337393e+03,2.867461e+03
1.348964e+03,2.705945e+03
1.360535e+03,2.667423e+03
1.372106e+03,2.673531e+03
1.383677e+03,2.651260e+03
1.395247e+03,2.627061e+03
1.406818e+03,2.630130e+03
1.418389e+03,2.603079e+03
1.429960e+03,2.593754e+03
1.441531e+03,2.592963e+03
1.453101e+03,2.564485e+03
1.464672e+03,2.551851e+03
1.476243e+03,2.528887e+03
1.487814e+03,2.526961e+03
1.499385e+03,2.508090e+03
1.510955e+03,2.495302e+03
1.522526e+03,2.696633e+03
1.534097e+03,2.493851e+03
1.545668e+03,2.456609e+03
1.557239e+03,2.438402e+03
1.568809e+03,2.430209e+03
1.580380e+03,2.429181e+03
1.591951e+03,2.398364e+03
1.603522e+03,2.393878e+03
1.615093e+03,2.375981e+03
1.626663e+03,2.354043e+03
1.638234e+03,2.327192e+03
1.649805e+03,2.337738e+03
1.661376e+03,2.310836e+03
1.672947e+03,2.304693e+03
1.684517e+03,2.289862e+03
1.696088e+03,2.284677e+03
1.707659e+03,2.249959e+03
1.719230e+03,2.268777e+03
1.730801e+03,2.229157e+03
1.742371e+03,2.232683e+03
1.753942e+03,2.233296e+03
1.765513e+03,2.207010e+03
1.777084e+03,2.208867e+03
1.788655e+03,2.197393e+03
1.800225e+03,2.170128e+03
1.811796e+03,2.152619e+03
1.823367e+03,2.141647e+03
1.834938e+03,2.131568e+03
1.846509e+03,2.131099e+03
1.858079e+03,2.130252e+03
1.869650e+03,2.087301e+03
1.881221e+03,2.096056e+03
1.892792e+03,2.082109e+03
1.904363e+03,2.068892e+03
1.915933e+03,2.066082e+03
1.927504e+03,2.037343e+03
1.939075e+03,2.038630e+03
1.950646e+03,2.005009e+03
1.962217e+03,2.006979e+03
1.973787e+03,1.990506e+03
1.985358e+03,1.957799e+03
1.996929e+03,1.955826e+03
2.008500e+03,1.950638e+03
2.020071e+03,1.935779e+03
2.031641e+03,1.937277e+03
2.043212e+03,1.917014e+03
2.054783e+03,1.885378e+03
2.066354e+03,1.874716e+03
2.077925e+03,1.868113e+03
2.089496e+03,1.834586e+03
2.101066e+03,1.828253e+03
2.112637e+03,1.799414e+03
2.124208e+03,1.801670e+03
2.135779e+03,1.775914e+03
2.147350e+03,1.755434e+03
2.158920e+03,1.746962e+03
2.170491e+03,1.731198e+03
2.182062e+03,1.705981e+03
2.193633e+03,1.709954e+03
2.205204e+03,1.701831e+03
2.216774e+03,1.664816e+03
2.228345e+03,1.654351e+03
2.239916e+03,1.613112e+03
2.251487e+03,1.624333e+03
2.263058e+03,1.613188e+03
2.274628e+03,1.584775e+03
2.286199e+03,1.552056e+03
2.297770e+03,1.522753e+03
2.309341e+03,1.522628e+03
2.320912e+03,1.507900e+03
2.332482e+03,1.489171e+03
2.344053e+03,1.478700e+03
2.355624e+03,1.458538e+03
2.367195e+03,1.448578e+03
2.378766e+03,1.433422e+03
2.390336e+03,1.418045e+03
2.401907e+03,1.392820e+03
2.413478e+03,1.375917e+03
2.425049e+03,1.353386e+03
2.436620e+03,1.356490e+03
2.448190e+03,1.331747e+03
2.459761e+03,1.310757e+03
2.471332e+03,1.313213e+03
2.482903e+03,1.297168e+03
2.494474e+03,1.280131e+03
2.506044e+03,1.263581e+03
2.517615e+03,1.253272e+03
2.529186e+03,1.252888e+03
2.540757e+03,1.215143e+03
2.552328e+03,1.233399e+03
2.563898e+03,1.205172e+03
2.575469e+03,1.193983e+03
2.587040e+03,1.171940e+03
2.598611e+03,1.179901e+03
2.610182e+03,1.153374e+03
2.621752e+03,1.146744e+03
2.633323e+03,1.150728e+03
2.644894e+03,1.122952e+03
2.656465e+03,1.118144e+03
2.668036e+03,1.113926e+03
2.679606e+03,1.110573e+03
2.691177e+03,1.095260e+03
2.702748e+03,1.096190e+03
2.714319e+03,1.074477e+03
2.725890e+03,1.069371e+03
2.737460e+03,1.048969e+03
2.749031e+03,1.042562e+03
2.760602e+03,1.075867e+03
2.772173e+03,1.055616e+03
2.783744e+03,1.050050e+03
2.795314e+03,1.033059e+03
2.806885e+03,1.022106e+03
2.818456e+03,1.027564e+03
2.830027e+03,1.018976e+03
2.841598e+03,1.017446e+03
2.853168e+03,1.005042e+03
2.864739e+03,9.999141e+02
2.876310e+03,1.027490e+03
2.887881e+03,1.023138e+03
2.899452e+03,1.000920e+03
2.911022e+03,9.866190e+02
2.922593e+03,1.001954e+03
2.934164e+03,1.006464e+03
2.945735e+03,9.918334e+02
2.957306e+03,1.045784e+03
2.968876e+03,1.022520e+03
2.980447e+03,9.853222e+02
2.992018e+03,9.907387e+02
3.003589e+03,9.754290e+02
3.015160e+03,9.857745e+02
3.026730e+03,9.464440e+02
3.038301e+03,9.621758e+02
3.049872e+03,9.672590e+02
3.061443e+03,9.598625e+02
3.073014e+03,9.938060e+02
3.084584e+03,9.574024e+02
3.096155e+03,9.605757e+02
3.107726e+03,9.370726e+02
3.119297e+03,9.942399e+02
3.130868e+03,9.841439e+02
3.142438e+03,9.821658e+02
3.154009e+03,1.003303e+03
3.165580e+03,9.947056e+02
3.177151e+03,1.021438e+03
3.188722e+03,1.029712e+03
3.200292e+03,1.018050e+03
3.211863e+03,0.000000e+00
3.223434e+03,0.000000e+00
3.235005e+03,0.000000e+00
3.246576e+03,0.000000e+00
3.258146e+03,0.000000e+00
3.269717e+03,0.000000e+00
3.281288e+03,0.000000e+00
3.292859e+03,0.000000e+00
3.304430e+03,0.000000e+00
3.316000e+03,0.000000e+00
3.327571e+03,0.000000e+00
3.339142e+03,0.000000e+00
3.350713e+03,0.000000e+00
3.362284e+03,0.000000e+00
3.373854e+03,0.000000e+00
3.385425e+03,0.000000e+00
3.396996e+03,0.000000e+00
3.408567e+03,0.000000e+00
3.420138e+03,0.000000e+00
3.431708e+03,0.000000e+00
3.443279e+03,0.000000e+00
3.454850e+03,0.000000e+00
3.466421e+03,0.000000e+00
3.477992e+03,0.000000e+00
3.489563e+03,0.000000e+00
3.500169e+03,0.000000e+00