File: RAMAN_data/13112023_r1/blue fibre1.CSV
9.931763e+01,0.000000e+00
1.108884e+02,0.000000e+00
1.224592e+02,0.000000e+00
1.340300e+02,0.000000e+00
1.456008e+02,0.000000e+00
1.571716e+02,0.000000e+00
1.687424e+02,0.000000e+00
1.803132e+02,0.000000e+00
1.918840e+02,0.000000e+00
2.034548e+02,1.051888e+04
2.150256e+02,1.056710e+04
2.265964e+02,1.064326e+04
2.381673e+02,1.076232e+04
2.497381e+02,1.081691e+04
2.613088e+02,1.089771e+04
2.728796e+02,1.098796e+04
2.844504e+02,1.108944e+04
2.960212e+02,1.111931e+04
3.075920e+02,1.115413e+04
3.191628e+02,1.118644e+04
3.307336e+02,1.127300e+04
3.423044e+02,1.129920e+04
3.538752e+02,1.135601e+04
3.654461e+02,1.138879e+04
3.770169e+02,1.144871e+04
3.885877e+02,1.147841e+04
4.001585e+02,1.148031e+04
4.117293e+02,1.144403e+04
4.233001e+02,1.147171e+04
4.348709e+02,1.143759e+04
4.464417e+02,1.138476e+04
4.580125e+02,1.140338e+04
4.695833e+02,1.137133e+04
4.811541e+02,1.132188e+04
4.927249e+02,1.127359e+04
5.042957e+02,1.127180e+04
5.158665e+02,1.128380e+04
5.274373e+02,1.123810e+04
5.390081e+02,1.119367e+04
5.505789e+02,1.115736e+04
5.621497e+02,1.114464e+04
5.737205e+02,1.110999e+04
5.852913e+02,1.105017e+04
5.968621e+02,1.101305e+04
6.084329e+02,1.098858e+04
6.200037e+02,1.093906e+04
6.315745e+02,1.093500e+04
6.431453e+02,1.084144e+04
6.547161e+02,1.083855e+04
6.662869e+02,1.076803e+04
6.778577e+02,1.073191e+04
6.894285e+02,1.067945e+04
7.009993e+02,1.063092e+04
7.125701e+02,1.062467e+04
7.241409e+02,1.055739e+04
7.357117e+02,1.052157e+04
7.472825e+02,1.053178e+04
7.588533e+02,1.043803e+04
7.704241e+02,1.038635e+04
7.819949e+02,1.038064e+04
7.935657e+02,1.032668e+04
8.051365e+02,1.027631e+04
8.167073e+02,1.020831e+04
8.282781e+02,1.018221e+04
8.398489e+02,1.016499e+04
8.514197e+02,1.013979e+04
8.629905e+02,1.006742e+04
8.745613e+02,9.981965e+03
8.861321e+02,9.996819e+03
8.977029e+02,9.925588e+03
9.092737e+02,9.873354e+03
9.208445e+02,9.819576e+03
9.324153e+02,9.812450e+03
9.439861e+02,9.758900e+03
9.555569e+02,9.692138e+03
9.671277e+02,9.662996e+03
9.786985e+02,9.616913e+03
9.902693e+02,9.557076e+03
1.001840e+03,9.524755e+03
1.013411e+03,9.499803e+03
1.024982e+03,9.480146e+03
1.036552e+03,9.447646e+03
1.048123e+03,9.386354e+03
1.059694e+03,9.358772e+03
1.071265e+03,9.333767e+03
1.082836e+03,9.317210e+03
1.094406e+03,9.248502e+03
1.105977e+03,9.215654e+03
1.117548e+03,9.231080e+03
1.129119e+03,9.154530e+03
1.140690e+03,9.131618e+03
1.152261e+03,9.138846e+03
1.163831e+03,9.103212e+03
1.175402e+03,9.025653e+03
1.186973e+03,8.962538e+03
1.198544e+03,8.998897e+03
1.210115e+03,8.955366e+03
1.221685e+03,8.921949e+03
1.233256e+03,8.873619e+03
1.244827e+03,8.902672e+03
1.256398e+03,8.853730e+03
1.267969e+03,8.790893e+03
1.279539e+03,8.769732e+03
1.291110e+03,8.788361e+03
1.302681e+03,8.700616e+03
1.314252e+03,8.663505e+03
1.325823e+03,8.658510e+03
1.337393e+03,8.674377e+03
1.348964e+03,8.586098e+03
1.360535e+03,8.519181e+03
1.372106e+03,8.504960e+03
1.383677e+03,8.459926e+03
1.395247e+03,8.394502e+03
1.406818e+03,8.330536e+03
1.418389e+03,8.314245e+03
1.429960e+03,8.261373e+03
1.441531e+03,8.202391e+03
1.453101e+03,8.134437e+03
1.464672e+03,8.118096e+03
1.476243e+03,8.081995e+03
1.487814e+03,8.063990e+03
1.499385e+03,8.009127e+03
1.510955e+03,7.965075e+03
1.522526e+03,7.918192e+03
1.534097e+03,7.894420e+03
1.545668e+03,7.851555e+03
1.557239e+03,7.845161e+03
1.568809e+03,7.829220e+03
1.580380e+03,7.779434e+03
1.591951e+03,7.743618e+03
1.603522e+03,7.691130e+03
1.615093e+03,7.634298e+03
1.626663e+03,7.547036e+03
1.638234e+03,7.430643e+03
1.649805e+03,7.388938e+03
1.661376e+03,7.352341e+03
1.672947e+03,7.263312e+03
1.684517e+03,7.201623e+03
1.696088e+03,7.182608e+03
1.707659e+03,7.165868e+03
1.719230e+03,7.078405e+03
1.730801e+03,7.061564e+03
1.742371e+03,7.006097e+03
1.753942e+03,6.962917e+03
1.765513e+03,6.902614e+03
1.777084e+03,6.853385e+03
1.788655e+03,6.828806e+03
1.800225e+03,6.778515e+03
1.811796e+03,6.687103e+03
1.823367e+03,6.652929e+03
1.834938e+03,6.602192e+03
1.846509e+03,6.571416e+03
1.858079e+03,6.508212e+03
1.869650e+03,6.457369e+03
1.881221e+03,6.411876e+03
1.892792e+03,6.367147e+03
1.904363e+03,6.307417e+03
1.915933e+03,6.234924e+03
1.927504e+03,6.232266e+03
1.939075e+03,6.145787e+03
1.950646e+03,6.045804e+03
1.962217e+03,6.067869e+03
1.973787e+03,5.950242e+03
1.985358e+03,5.942224e+03
1.996929e+03,5.902373e+03
2.008500e+03,5.815781e+03
2.020071e+03,5.785672e+03
2.031641e+03,5.745396e+03
2.043212e+03,5.667929e+03
2.054783e+03,5.604583e+03
2.066354e+03,5.612291e+03
2.077925e+03,5.526672e+03
2.089496e+03,5.477015e+03
2.101066e+03,5.403588e+03
2.112637e+03,5.368490e+03
2.124208e+03,5.355632e+03
2.135779e+03,5.277621e+03
2.147350e+03,5.189753e+03
2.158920e+03,5.177836e+03
2.170491e+03,5.115870e+03
2.182062e+03,5.056508e+03
2.193633e+03,4.974954e+03
2.205204e+03,4.937511e+03
2.216774e+03,4.934702e+03
2.228345e+03,4.846938e+03
2.239916e+03,4.787184e+03
2.251487e+03,4.765894e+03
2.263058e+03,4.725753e+03
2.274628e+03,4.657184e+03
2.286199e+03,4.588246e+03
2.297770e+03,4.586039e+03
2.309341e+03,4.503995e+03
2.320912e+03,4.444058e+03
2.332482e+03,4.405371e+03
2.344053e+03,4.383745e+03
2.355624e+03,4.351395e+03
2.367195e+03,4.285958e+03
2.378766e+03,4.241585e+03
2.390336e+03,4.202624e+03
2.401907e+03,4.136112e+03
2.413478e+03,4.090698e+03
2.425049e+03,4.064245e+03
2.436620e+03,4.021913e+03
2.448190e+03,3.989456e+03
2.459761e+03,3.955546e+03
2.471332e+03,3.922611e+03
2.482903e+03,3.887398e+03
2.494474e+03,3.840675e+03
2.506044e+03,3.810622e+03
2.517615e+03,3.775316e+03
2.529186e+03,3.716320e+03
2.540757e+03,3.705110e+03
2.552328e+03,3.661767e+03
2.563898e+03,3.639719e+03
2.575469e+03,3.619230e+03
2.587040e+03,3.580444e+03
2.598611e+03,3.517962e+03
2.610182e+03,3.512149e+03
2.621752e+03,3.475937e+03
2.633323e+03,3.452420e+03
2.644894e+03,3.428742e+03
2.656465e+03,3.403943e+03
2.668036e+03,3.347263e+03
2.679606e+03,3.316482e+03
2.691177e+03,3.325306e+03
2.702748e+03,3.248656e+03
2.714319e+03,3.245839e+03
2.725890e+03,3.214740e+03
2.737460e+03,3.214674e+03
2.749031e+03,3.161386e+03
2.760602e+03,3.147992e+03
2.772173e+03,3.129263e+03
2.783744e+03,3.105286e+03
2.795314e+03,3.087504e+03
2.806885e+03,3.060701e+03
2.818456e+03,3.031431e+03
2.830027e+03,3.006054e+03
2.841598e+03,3.013112e+03
2.853168e+03,2.990378e+03
2.864739e+03,2.946673e+03
2.876310e+03,2.935016e+03
2.887881e+03,2.967434e+03
2.899452e+03,2.921935e+03
2.911022e+03,2.915185e+03
2.922593e+03,2.847052e+03
2.934164e+03,2.876426e+03
2.945735e+03,2.808477e+03
2.957306e+03,2.849757e+03
2.968876e+03,2.748999e+03
2.980447e+03,2.762543e+03
2.992018e+03,2.699376e+03
3.003589e+03,2.692934e+03
3.015160e+03,2.633552e+03
3.026730e+03,2.676871e+03
3.038301e+03,2.599425e+03
3.049872e+03,2.657042e+03
3.061443e+03,2.623911e+03
3.073014e+03,2.618597e+03
3.084584e+03,2.560526e+03
3.096155e+03,2.612878e+03
3.107726e+03,2.529588e+03
3.119297e+03,2.558956e+03
3.130868e+03,2.540694e+03
3.142438e+03,2.614518e+03
3.154009e+03,2.546387e+03
3.165580e+03,2.550653e+03
3.177151e+03,2.480760e+03
3.188722e+03,2.523262e+03
3.200292e+03,2.581304e+03
3.211863e+03,0.000000e+00
3.223434e+03,0.000000e+00
3.235005e+03,0.000000e+00
3.246576e+03,0.000000e+00
3.258146e+03,0.000000e+00
3.269717e+03,0.000000e+00
3.281288e+03,0.000000e+00
3.292859e+03,0.000000e+00
3.304430e+03,0.000000e+00
3.316000e+03,0.000000e+00
3.327571e+03,0.000000e+00
3.339142e+03,0.000000e+00
3.350713e+03,0.000000e+00
3.362284e+03,0.000000e+00
3.373854e+03,0.000000e+00
3.385425e+03,0.000000e+00
3.396996e+03,0.000000e+00
3.408567e+03,0.000000e+00
3.420138e+03,0.000000e+00
3.431708e+03,0.000000e+00
3.443279e+03,0.000000e+00
3.454850e+03,0.000000e+00
3.466421e+03,0.000000e+00
3.477992e+03,0.000000e+00
3.489563e+03,0.000000e+00
3.500169e+03,0.000000e+00