File: RAMAN_data/13112023_r1/red fibre2.CSV
9.931763e+01,0.000000e+00
1.108884e+02,0.000000e+00
1.224592e+02,0.000000e+00
1.340300e+02,0.000000e+00
1.456008e+02,0.000000e+00
1.571716e+02,0.000000e+00
1.687424e+02,0.000000e+00
1.803132e+02,0.000000e+00
1.918840e+02,0.000000e+00
2.034548e+02,8.583709e+03
2.150256e+02,8.442895e+03
2.265964e+02,8.273327e+03
2.381673e+02,8.130778e+03
2.497381e+02,7.989312e+03
2.613088e+02,7.811399e+03
2.728796e+02,7.691279e+03
2.844504e+02,7.570020e+03
2.960212e+02,7.415455e+03
3.075920e+02,7.271255e+03
3.191628e+02,7.115037e+03
3.307336e+02,7.042630e+03
3.423044e+02,6.886547e+03
3.538752e+02,6.745368e+03
3.654461e+02,6.618712e+03
3.770169e+02,6.524920e+03
3.885877e+02,6.407937e+03
4.001585e+02,6.253088e+03
4.117293e+02,6.178751e+03
4.233001e+02,6.059407e+03
4.348709e+02,5.950566e+03
4.464417e+02,5.850056e+03
4.580125e+02,5.745148e+03
4.695833e+02,5.645409e+03
4.811541e+02,5.567333e+03
4.927249e+02,5.467722e+03
5.042957e+02,5.405679e+03
5.158665e+02,5.329416e+03
5.274373e+02,5.222134e+03
5.390081e+02,5.136911e+03
5.505789e+02,5.047062e+03
5.621497e+02,4.973735e+03
5.737205e+02,4.878695e+03
5.852913e+02,4.785388e+03
5.968621e+02,4.719365e+03
6.084329e+02,4.648756e+03
6.200037e+02,4.582135e+03
6.315745e+02,4.530732e+03
6.431453e+02,4.456337e+03
6.547161e+02,4.369900e+03
6.662869e+02,4.300171e+03
6.778577e+02,4.245471e+03
6.894285e+02,4.196967e+03
7.009993e+02,4.140565e+03
7.125701e+02,4.081353e+03
7.241409e+02,4.030007e+03
7.357117e+02,3.959927e+03
7.472825e+02,3.915809e+03
7.588533e+02,3.891180e+03
7.704241e+02,3.816630e+03
7.819949e+02,3.778035e+03
7.935657e+02,3.772232e+03
8.051365e+02,3.705776e+03
8.167073e+02,3.688830e+03
8.282781e+02,3.640752e+03
8.398489e+02,3.607308e+03
8.514197e+02,3.582640e+03
8.629905e+02,3.555220e+03
8.745613e+02,3.526079e+03
8.861321e+02,3.542742e+03
8.977029e+02,3.495045e+03
9.092737e+02,3.482356e+03
9.208445e+02,3.467336e+03
9.324153e+02,3.442113e+03
9.439861e+02,3.433097e+03
9.555569e+02,3.430885e+03
9.671277e+02,3.433215e+03
9.786985e+02,3.438182e+03
9.902693e+02,3.416288e+03
1.001840e+03,3.428018e+03
1.013411e+03,3.422425e+03
1.024982e+03,3.433959e+03
1.036552e+03,3.438460e+03
1.048123e+03,3.420299e+03
1.059694e+03,3.464181e+03
1.071265e+03,3.488846e+03
1.082836e+03,3.524446e+03
1.094406e+03,3.546215e+03
1.105977e+03,3.574803e+03
1.117548e+03,3.614227e+03
1.129119e+03,3.616827e+03
1.140690e+03,3.628899e+03
1.152261e+03,3.673022e+03
1.163831e+03,3.698236e+03
1.175402e+03,3.723597e+03
1.186973e+03,3.728461e+03
1.198544e+03,3.741590e+03
1.210115e+03,3.771031e+03
1.221685e+03,3.807835e+03
1.233256e+03,3.799244e+03
1.244827e+03,3.840795e+03
1.256398e+03,3.875738e+03
1.267969e+03,3.867622e+03
1.279539e+03,3.877531e+03
1.291110e+03,3.902394e+03
1.302681e+03,3.908471e+03
1.314252e+03,3.900813e+03
1.325823e+03,3.923007e+03
1.337393e+03,3.907946e+03
1.348964e+03,3.899674e+03
1.360535e+03,3.868647e+03
1.372106e+03,3.875333e+03
1.383677e+03,3.831556e+03
1.395247e+03,3.822512e+03
1.406818e+03,3.790563e+03
1.418389e+03,3.761347e+03
1.429960e+03,3.722284e+03
1.441531e+03,3.685907e+03
1.453101e+03,3.657067e+03
1.464672e+03,3.617339e+03
1.476243e+03,3.592746e+03
1.487814e+03,3.526940e+03
1.499385e+03,3.471855e+03
1.510955e+03,3.441207e+03
1.522526e+03,3.394659e+03
1.534097e+03,3.337190e+03
1.545668e+03,3.277905e+03
1.557239e+03,3.232267e+03
1.568809e+03,3.186704e+03
1.580380e+03,3.154172e+03
1.591951e+03,3.071458e+03
1.603522e+03,3.023978e+03
1.615093e+03,3.011451e+03
1.626663e+03,2.918682e+03
1.638234e+03,2.865773e+03
1.649805e+03,2.807548e+03
1.661376e+03,2.743649e+03
1.672947e+03,2.706782e+03
1.684517e+03,2.634194e+03
1.696088e+03,2.587095e+03
1.707659e+03,2.537330e+03
1.719230e+03,2.507367e+03
1.730801e+03,2.460846e+03
1.742371e+03,2.396899e+03
1.753942e+03,2.344287e+03
1.765513e+03,2.322684e+03
1.777084e+03,2.266609e+03
1.788655e+03,2.224979e+03
1.800225e+03,2.179425e+03
1.811796e+03,2.137144e+03
1.823367e+03,2.092300e+03
1.834938e+03,2.063778e+03
1.846509e+03,2.006983e+03
1.858079e+03,1.977851e+03
1.869650e+03,1.917527e+03
1.881221e+03,1.901516e+03
1.892792e+03,1.869365e+03
1.904363e+03,1.844338e+03
1.915933e+03,1.793574e+03
1.927504e+03,1.759366e+03
1.939075e+03,1.729323e+03
1.950646e+03,1.695626e+03
1.962217e+03,1.669414e+03
1.973787e+03,1.630334e+03
1.985358e+03,1.605673e+03
1.996929e+03,1.552045e+03
2.008500e+03,1.540113e+03
2.020071e+03,1.497729e+03
2.031641e+03,1.488527e+03
2.043212e+03,1.439543e+03
2.054783e+03,1.416815e+03
2.066354e+03,1.421772e+03
2.077925e+03,1.384241e+03
2.089496e+03,1.356457e+03
2.101066e+03,1.335519e+03
2.112637e+03,1.299113e+03
2.124208e+03,1.288625e+03
2.135779e+03,1.258500e+03
2.147350e+03,1.235713e+03
2.158920e+03,1.223210e+03
2.170491e+03,1.201847e+03
2.182062e+03,1.180634e+03
2.193633e+03,1.170854e+03
2.205204e+03,1.150468e+03
2.216774e+03,1.149688e+03
2.228345e+03,1.124571e+03
2.239916e+03,1.090927e+03
2.251487e+03,1.073758e+03
2.263058e+03,1.046921e+03
2.274628e+03,1.040716e+03
2.286199e+03,1.029426e+03
2.297770e+03,1.027349e+03
2.309341e+03,1.019975e+03
2.320912e+03,1.012814e+03
2.332482e+03,9.812693e+02
2.344053e+03,9.760382e+02
2.355624e+03,9.736755e+02
2.367195e+03,9.573522e+02
2.378766e+03,9.464337e+02
2.390336e+03,9.391295e+02
2.401907e+03,9.337115e+02
2.413478e+03,9.201857e+02
2.425049e+03,9.105921e+02
2.436620e+03,9.008676e+02
2.448190e+03,9.145656e+02
2.459761e+03,8.995855e+02
2.471332e+03,8.907070e+02
2.482903e+03,8.901135e+02
2.494474e+03,8.794008e+02
2.506044e+03,8.830286e+02
2.517615e+03,8.771251e+02
2.529186e+03,8.599767e+02
2.540757e+03,8.419755e+02
2.552328e+03,8.782436e+02
2.563898e+03,8.569729e+02
2.575469e+03,8.597457e+02
2.587040e+03,8.253558e+02
2.598611e+03,8.439192e+02
2.610182e+03,8.274457e+02
2.621752e+03,8.346148e+02
2.633323e+03,8.293713e+02
2.644894e+03,8.044343e+02
2.656465e+03,8.225966e+02
2.668036e+03,8.217803e+02
2.679606e+03,8.082435e+02
2.691177e+03,8.015255e+02
2.702748e+03,8.084869e+02
2.714319e+03,7.952570e+02
2.725890e+03,7.967333e+02
2.737460e+03,7.763878e+02
2.749031e+03,8.026207e+02
2.760602e+03,7.702636e+02
2.772173e+03,7.601077e+02
2.783744e+03,7.538161e+02
2.795314e+03,7.478381e+02
2.806885e+03,7.389523e+02
2.818456e+03,7.249413e+02
2.830027e+03,7.322744e+02
2.841598e+03,7.268049e+02
2.853168e+03,7.102959e+02
2.864739e+03,7.254615e+02
2.876310e+03,6.900137e+02
2.887881e+03,7.088929e+02
2.899452e+03,6.815235e+02
2.911022e+03,6.823538e+02
2.922593e+03,6.884469e+02
2.934164e+03,6.523746e+02
2.945735e+03,6.712234e+02
2.957306e+03,7.039280e+02
2.968876e+03,6.510866e+02
2.980447e+03,6.530923e+02
2.992018e+03,6.434001e+02
3.003589e+03,6.169570e+02
3.015160e+03,6.178568e+02
3.026730e+03,6.350695e+02
3.038301e+03,6.262764e+02
3.049872e+03,5.966640e+02
3.061443e+03,6.133181e+02
3.073014e+03,6.063854e+02
3.084584e+03,5.974594e+02
3.096155e+03,5.907006e+02
3.107726e+03,5.525364e+02
3.119297e+03,5.968069e+02
3.130868e+03,6.334315e+02
3.142438e+03,6.040655e+02
3.154009e+03,5.938965e+02
3.165580e+03,6.202557e+02
3.177151e+03,5.808497e+02
3.188722e+03,5.776964e+02
3.200292e+03,6.807880e+02
3.211863e+03,0.000000e+00
3.223434e+03,0.000000e+00
3.235005e+03,0.000000e+00
3.246576e+03,0.000000e+00
3.258146e+03,0.000000e+00
3.269717e+03,0.000000e+00
3.281288e+03,0.000000e+00
3.292859e+03,0.000000e+00
3.304430e+03,0.000000e+00
3.316000e+03,0.000000e+00
3.327571e+03,0.000000e+00
3.339142e+03,0.000000e+00
3.350713e+03,0.000000e+00
3.362284e+03,0.000000e+00
3.373854e+03,0.000000e+00
3.385425e+03,0.000000e+00
3.396996e+03,0.000000e+00
3.408567e+03,0.000000e+00
3.420138e+03,0.000000e+00
3.431708e+03,0.000000e+00
3.443279e+03,0.000000e+00
3.454850e+03,0.000000e+00
3.466421e+03,0.000000e+00
3.477992e+03,0.000000e+00
3.489563e+03,0.000000e+00
3.500169e+03,0.000000e+00