File: RAMAN_data/13112023_r1/red fibre1.CSV
9.931763e+01,0.000000e+00
1.108884e+02,0.000000e+00
1.224592e+02,0.000000e+00
1.340300e+02,0.000000e+00
1.456008e+02,0.000000e+00
1.571716e+02,0.000000e+00
1.687424e+02,0.000000e+00
1.803132e+02,0.000000e+00
1.918840e+02,0.000000e+00
2.034548e+02,3.474563e+03
2.150256e+02,3.443390e+03
2.265964e+02,3.384847e+03
2.381673e+02,3.373247e+03
2.497381e+02,3.315494e+03
2.613088e+02,3.306956e+03
2.728796e+02,3.251746e+03
2.844504e+02,3.238765e+03
2.960212e+02,3.206035e+03
3.075920e+02,3.162859e+03
3.191628e+02,3.123301e+03
3.307336e+02,3.088052e+03
3.423044e+02,3.059647e+03
3.538752e+02,3.026564e+03
3.654461e+02,2.990047e+03
3.770169e+02,2.981654e+03
3.885877e+02,2.939705e+03
4.001585e+02,2.889960e+03
4.117293e+02,2.869386e+03
4.233001e+02,2.832296e+03
4.348709e+02,2.810468e+03
4.464417e+02,2.774820e+03
4.580125e+02,2.741148e+03
4.695833e+02,2.704092e+03
4.811541e+02,2.690596e+03
4.927249e+02,2.652490e+03
5.042957e+02,2.633054e+03
5.158665e+02,2.612167e+03
5.274373e+02,2.573584e+03
5.390081e+02,2.533638e+03
5.505789e+02,2.508647e+03
5.621497e+02,2.500209e+03
5.737205e+02,2.469946e+03
5.852913e+02,2.459968e+03
5.968621e+02,2.420133e+03
6.084329e+02,2.401689e+03
6.200037e+02,2.378333e+03
6.315745e+02,2.369458e+03
6.431453e+02,2.331655e+03
6.547161e+02,2.303350e+03
6.662869e+02,2.289241e+03
6.778577e+02,2.261169e+03
6.894285e+02,2.232411e+03
7.009993e+02,2.229464e+03
7.125701e+02,2.192804e+03
7.241409e+02,2.174929e+03
7.357117e+02,2.159640e+03
7.472825e+02,2.143295e+03
7.588533e+02,2.132053e+03
7.704241e+02,2.115255e+03
7.819949e+02,2.081776e+03
7.935657e+02,2.077825e+03
8.051365e+02,2.060373e+03
8.167073e+02,2.042910e+03
8.282781e+02,2.028474e+03
8.398489e+02,2.017009e+03
8.514197e+02,2.009582e+03
8.629905e+02,2.009565e+03
8.745613e+02,2.000186e+03
8.861321e+02,1.993452e+03
8.977029e+02,1.972540e+03
9.092737e+02,1.948124e+03
9.208445e+02,1.943695e+03
9.324153e+02,1.927408e+03
9.439861e+02,1.933514e+03
9.555569e+02,1.917399e+03
9.671277e+02,1.932365e+03
9.786985e+02,1.913526e+03
9.902693e+02,1.913921e+03
1.001840e+03,1.915678e+03
1.013411e+03,1.904482e+03
1.024982e+03,1.908672e+03
1.036552e+03,1.909215e+03
1.048123e+03,1.903205e+03
1.059694e+03,1.923452e+03
1.071265e+03,1.933752e+03
1.082836e+03,1.927718e+03
1.094406e+03,1.940427e+03
1.105977e+03,1.937707e+03
1.117548e+03,1.962690e+03
1.129119e+03,1.960658e+03
1.140690e+03,1.943996e+03
1.152261e+03,1.953009e+03
1.163831e+03,1.967460e+03
1.175402e+03,1.960542e+03
1.186973e+03,1.955835e+03
1.198544e+03,1.953706e+03
1.210115e+03,1.950532e+03
1.221685e+03,1.972346e+03
1.233256e+03,1.975680e+03
1.244827e+03,1.973810e+03
1.256398e+03,1.976243e+03
1.267969e+03,1.980101e+03
1.279539e+03,1.983269e+03
1.291110e+03,1.977344e+03
1.302681e+03,1.974245e+03
1.314252e+03,1.972972e+03
1.325823e+03,1.983725e+03
1.337393e+03,1.988146e+03
1.348964e+03,1.966912e+03
1.360535e+03,1.956158e+03
1.372106e+03,1.942509e+03
1.383677e+03,1.940008e+03
1.395247e+03,1.913902e+03
1.406818e+03,1.907197e+03
1.418389e+03,1.899490e+03
1.429960e+03,1.879650e+03
1.441531e+03,1.866495e+03
1.453101e+03,1.845211e+03
1.464672e+03,1.838739e+03
1.476243e+03,1.808230e+03
1.487814e+03,1.787217e+03
1.499385e+03,1.757473e+03
1.510955e+03,1.747428e+03
1.522526e+03,1.738514e+03
1.534097e+03,1.711073e+03
1.545668e+03,1.681699e+03
1.557239e+03,1.679931e+03
1.568809e+03,1.663728e+03
1.580380e+03,1.643969e+03
1.591951e+03,1.619620e+03
1.603522e+03,1.613623e+03
1.615093e+03,1.601874e+03
1.626663e+03,1.564741e+03
1.638234e+03,1.529630e+03
1.649805e+03,1.511294e+03
1.661376e+03,1.497086e+03
1.672947e+03,1.459844e+03
1.684517e+03,1.434352e+03
1.696088e+03,1.422917e+03
1.707659e+03,1.405364e+03
1.719230e+03,1.391668e+03
1.730801e+03,1.371066e+03
1.742371e+03,1.351142e+03
1.753942e+03,1.321617e+03
1.765513e+03,1.302918e+03
1.777084e+03,1.286884e+03
1.788655e+03,1.265224e+03
1.800225e+03,1.254963e+03
1.811796e+03,1.222025e+03
1.823367e+03,1.195991e+03
1.834938e+03,1.194485e+03
1.846509e+03,1.178404e+03
1.858079e+03,1.151594e+03
1.869650e+03,1.151917e+03
1.881221e+03,1.107714e+03
1.892792e+03,1.091920e+03
1.904363e+03,1.091615e+03
1.915933e+03,1.065194e+03
1.927504e+03,1.055655e+03
1.939075e+03,1.027127e+03
1.950646e+03,1.009919e+03
1.962217e+03,9.968959e+02
1.973787e+03,9.756568e+02
1.985358e+03,9.785533e+02
1.996929e+03,9.747858e+02
2.008500e+03,9.369040e+02
2.020071e+03,9.227221e+02
2.031641e+03,9.179507e+02
2.043212e+03,9.140969e+02
2.054783e+03,8.890394e+02
2.066354e+03,8.695250e+02
2.077925e+03,8.598471e+02
2.089496e+03,8.543848e+02
2.101066e+03,8.377922e+02
2.112637e+03,8.233821e+02
2.124208e+03,8.191212e+02
2.135779e+03,8.019708e+02
2.147350e+03,7.936634e+02
2.158920e+03,7.705197e+02
2.170491e+03,7.564830e+02
2.182062e+03,7.566027e+02
2.193633e+03,7.406613e+02
2.205204e+03,7.460211e+02
2.216774e+03,7.348248e+02
2.228345e+03,7.268289e+02
2.239916e+03,7.108647e+02
2.251487e+03,7.045842e+02
2.263058e+03,6.932672e+02
2.274628e+03,6.943029e+02
2.286199e+03,6.774184e+02
2.297770e+03,6.704274e+02
2.309341e+03,6.633806e+02
2.320912e+03,6.581569e+02
2.332482e+03,6.432204e+02
2.344053e+03,6.356849e+02
2.355624e+03,6.325851e+02
2.367195e+03,6.264502e+02
2.378766e+03,6.177461e+02
2.390336e+03,6.214529e+02
2.401907e+03,6.119189e+02
2.413478e+03,6.004249e+02
2.425049e+03,6.164520e+02
2.436620e+03,5.952957e+02
2.448190e+03,5.834864e+02
2.459761e+03,5.829005e+02
2.471332e+03,5.864310e+02
2.482903e+03,5.809151e+02
2.494474e+03,5.706542e+02
2.506044e+03,5.633187e+02
2.517615e+03,5.618288e+02
2.529186e+03,5.581707e+02
2.540757e+03,5.619950e+02
2.552328e+03,5.505173e+02
2.563898e+03,5.579744e+02
2.575469e+03,5.530990e+02
2.587040e+03,5.315847e+02
2.598611e+03,5.334213e+02
2.610182e+03,5.351853e+02
2.621752e+03,5.390899e+02
2.633323e+03,5.158901e+02
2.644894e+03,5.036270e+02
2.656465e+03,5.213456e+02
2.668036e+03,5.171571e+02
2.679606e+03,5.156484e+02
2.691177e+03,4.835732e+02
2.702748e+03,5.055763e+02
2.714319e+03,4.882375e+02
2.725890e+03,4.900039e+02
2.737460e+03,4.996646e+02
2.749031e+03,4.836848e+02
2.760602e+03,4.765430e+02
2.772173e+03,4.744159e+02
2.783744e+03,4.529991e+02
2.795314e+03,4.719414e+02
2.806885e+03,4.623402e+02
2.818456e+03,4.605461e+02
2.830027e+03,4.677032e+02
2.841598e+03,4.447912e+02
2.853168e+03,4.546137e+02
2.864739e+03,4.495136e+02
2.876310e+03,4.553934e+02
2.887881e+03,4.627950e+02
2.899452e+03,4.471317e+02
2.911022e+03,4.249200e+02
2.922593e+03,4.439619e+02
2.934164e+03,4.297982e+02
2.945735e+03,4.269911e+02
2.957306e+03,4.755612e+02
2.968876e+03,4.238093e+02
2.980447e+03,4.117537e+02
2.992018e+03,3.946070e+02
3.003589e+03,3.997311e+02
3.015160e+03,3.994589e+02
3.026730e+03,3.935182e+02
3.038301e+03,3.953385e+02
3.049872e+03,3.858805e+02
3.061443e+03,3.911817e+02
3.073014e+03,3.784367e+02
3.084584e+03,3.934258e+02
3.096155e+03,3.634536e+02
3.107726e+03,3.542696e+02
3.119297e+03,3.793472e+02
3.130868e+03,4.050239e+02
3.142438e+03,4.191200e+02
3.154009e+03,3.578368e+02
3.165580e+03,3.988183e+02
3.177151e+03,3.888698e+02
3.188722e+03,3.504254e+02
3.200292e+03,4.174872e+02
3.211863e+03,0.000000e+00
3.223434e+03,0.000000e+00
3.235005e+03,0.000000e+00
3.246576e+03,0.000000e+00
3.258146e+03,0.000000e+00
3.269717e+03,0.000000e+00
3.281288e+03,0.000000e+00
3.292859e+03,0.000000e+00
3.304430e+03,0.000000e+00
3.316000e+03,0.000000e+00
3.327571e+03,0.000000e+00
3.339142e+03,0.000000e+00
3.350713e+03,0.000000e+00
3.362284e+03,0.000000e+00
3.373854e+03,0.000000e+00
3.385425e+03,0.000000e+00
3.396996e+03,0.000000e+00
3.408567e+03,0.000000e+00
3.420138e+03,0.000000e+00
3.431708e+03,0.000000e+00
3.443279e+03,0.000000e+00
3.454850e+03,0.000000e+00
3.466421e+03,0.000000e+00
3.477992e+03,0.000000e+00
3.489563e+03,0.000000e+00
3.500169e+03,0.000000e+00