File: RAMAN_data/19072023_r1/black fibre1.CSV
9.931763e+01,0.000000e+00
1.108884e+02,0.000000e+00
1.224592e+02,0.000000e+00
1.340300e+02,0.000000e+00
1.456008e+02,0.000000e+00
1.571716e+02,0.000000e+00
1.687424e+02,0.000000e+00
1.803132e+02,0.000000e+00
1.918840e+02,0.000000e+00
2.034548e+02,4.963451e+03
2.150256e+02,4.985072e+03
2.265964e+02,4.994905e+03
2.381673e+02,5.050499e+03
2.497381e+02,5.063143e+03
2.613088e+02,5.076623e+03
2.728796e+02,5.108290e+03
2.844504e+02,5.112576e+03
2.960212e+02,5.137382e+03
3.075920e+02,5.151616e+03
3.191628e+02,5.165400e+03
3.307336e+02,5.193903e+03
3.423044e+02,5.222799e+03
3.538752e+02,5.229370e+03
3.654461e+02,5.221328e+03
3.770169e+02,5.274138e+03
3.885877e+02,5.236365e+03
4.001585e+02,5.261346e+03
4.117293e+02,5.248515e+03
4.233001e+02,5.250993e+03
4.348709e+02,5.243984e+03
4.464417e+02,5.260320e+03
4.580125e+02,5.261166e+03
4.695833e+02,5.248768e+03
4.811541e+02,5.294822e+03
4.927249e+02,5.298336e+03
5.042957e+02,5.230192e+03
5.158665e+02,5.257106e+03
5.274373e+02,5.213925e+03
5.390081e+02,5.180915e+03
5.505789e+02,5.182462e+03
5.621497e+02,5.181902e+03
5.737205e+02,5.162829e+03
5.852913e+02,5.163444e+03
5.968621e+02,5.147861e+03
6.084329e+02,5.170403e+03
6.200037e+02,5.118158e+03
6.315745e+02,5.094883e+03
6.431453e+02,5.082390e+03
6.547161e+02,5.076901e+03
6.662869e+02,5.051323e+03
6.778577e+02,5.002023e+03
6.894285e+02,5.005020e+03
7.009993e+02,4.962416e+03
7.125701e+02,4.972819e+03
7.241409e+02,4.939331e+03
7.357117e+02,4.898471e+03
7.472825e+02,4.891178e+03
7.588533e+02,4.879148e+03
7.704241e+02,4.842198e+03
7.819949e+02,4.802557e+03
7.935657e+02,4.806612e+03
8.051365e+02,4.754712e+03
8.167073e+02,4.749414e+03
8.282781e+02,4.731614e+03
8.398489e+02,4.715757e+03
8.514197e+02,4.686919e+03
8.629905e+02,4.642518e+03
8.745613e+02,4.638319e+03
8.861321e+02,4.610292e+03
8.977029e+02,4.587438e+03
9.092737e+02,4.553875e+03
9.208445e+02,4.498458e+03
9.324153e+02,4.517326e+03
9.439861e+02,4.447611e+03
9.555569e+02,4.422372e+03
9.671277e+02,4.402727e+03
9.786985e+02,4.393521e+03
9.902693e+02,4.370085e+03
1.001840e+03,4.340770e+03
1.013411e+03,4.314681e+03
1.024982e+03,4.278535e+03
1.036552e+03,4.272231e+03
1.048123e+03,4.218336e+03
1.059694e+03,4.204848e+03
1.071265e+03,4.206476e+03
1.082836e+03,4.198967e+03
1.094406e+03,4.182294e+03
1.105977e+03,4.157417e+03
1.117548e+03,4.201917e+03
1.129119e+03,4.183412e+03
1.140690e+03,4.162226e+03
1.152261e+03,4.188260e+03
1.163831e+03,4.076241e+03
1.175402e+03,4.062097e+03
1.186973e+03,4.022323e+03
1.198544e+03,3.989998e+03
1.210115e+03,3.998992e+03
1.221685e+03,3.962104e+03
1.233256e+03,3.932952e+03
1.244827e+03,3.902714e+03
1.256398e+03,3.900218e+03
1.267969e+03,3.868273e+03
1.279539e+03,3.910344e+03
1.291110e+03,3.850601e+03
1.302681e+03,3.822800e+03
1.314252e+03,3.783520e+03
1.325823e+03,3.770010e+03
1.337393e+03,3.802038e+03
1.348964e+03,3.762101e+03
1.360535e+03,3.726875e+03
1.372106e+03,3.692853e+03
1.383677e+03,3.651281e+03
1.395247e+03,3.620805e+03
1.406818e+03,3.612342e+03
1.418389e+03,3.571123e+03
1.429960e+03,3.564817e+03
1.441531e+03,3.507609e+03
1.453101e+03,3.457852e+03
1.464672e+03,3.468304e+03
1.476243e+03,3.455086e+03
1.487814e+03,3.435595e+03
1.499385e+03,3.392194e+03
1.510955e+03,3.376945e+03
1.522526e+03,3.364515e+03
1.534097e+03,3.327884e+03
1.545668e+03,3.290515e+03
1.557239e+03,3.308296e+03
1.568809e+03,3.314216e+03
1.580380e+03,3.320651e+03
1.591951e+03,3.280208e+03
1.603522e+03,3.218079e+03
1.615093e+03,3.195352e+03
1.626663e+03,3.132334e+03
1.638234e+03,3.125745e+03
1.649805e+03,3.101754e+03
1.661376e+03,3.077586e+03
1.672947e+03,3.049609e+03
1.684517e+03,3.024629e+03
1.696088e+03,2.986015e+03
1.707659e+03,2.992594e+03
1.719230e+03,2.942984e+03
1.730801e+03,2.905153e+03
1.742371e+03,2.890965e+03
1.753942e+03,2.864794e+03
1.765513e+03,2.842251e+03
1.777084e+03,2.823036e+03
1.788655e+03,2.790947e+03
1.800225e+03,2.778114e+03
1.811796e+03,2.742977e+03
1.823367e+03,2.724354e+03
1.834938e+03,2.694033e+03
1.846509e+03,2.667384e+03
1.858079e+03,2.652073e+03
1.869650e+03,2.597658e+03
1.881221e+03,2.596527e+03
1.892792e+03,2.579915e+03
1.904363e+03,2.536340e+03
1.915933e+03,2.509912e+03
1.927504e+03,2.502410e+03
1.939075e+03,2.457083e+03
1.950646e+03,2.439805e+03
1.962217e+03,2.427861e+03
1.973787e+03,2.415674e+03
1.985358e+03,2.366520e+03
1.996929e+03,2.354197e+03
2.008500e+03,2.313726e+03
2.020071e+03,2.317703e+03
2.031641e+03,2.259610e+03
2.043212e+03,2.244339e+03
2.054783e+03,2.232826e+03
2.066354e+03,2.201736e+03
2.077925e+03,2.189401e+03
2.089496e+03,2.149378e+03
2.101066e+03,2.134912e+03
2.112637e+03,2.115841e+03
2.124208e+03,2.077844e+03
2.135779e+03,2.046372e+03
2.147350e+03,2.025435e+03
2.158920e+03,2.010945e+03
2.170491e+03,1.997426e+03
2.182062e+03,1.970009e+03
2.193633e+03,1.955085e+03
2.205204e+03,1.940981e+03
2.216774e+03,1.899503e+03
2.228345e+03,1.879494e+03
2.239916e+03,1.849250e+03
2.251487e+03,1.848510e+03
2.263058e+03,1.819316e+03
2.274628e+03,1.791757e+03
2.286199e+03,1.762255e+03
2.297770e+03,1.741910e+03
2.309341e+03,1.739138e+03
2.320912e+03,1.714934e+03
2.332482e+03,1.679375e+03
2.344053e+03,1.678902e+03
2.355624e+03,1.640977e+03
2.367195e+03,1.632901e+03
2.378766e+03,1.623921e+03
2.390336e+03,1.583590e+03
2.401907e+03,1.561250e+03
2.413478e+03,1.559366e+03
2.425049e+03,1.554395e+03
2.436620e+03,1.518326e+03
2.448190e+03,1.498952e+03
2.459761e+03,1.478925e+03
2.471332e+03,1.459444e+03
2.482903e+03,1.475929e+03
2.494474e+03,1.432343e+03
2.506044e+03,1.423774e+03
2.517615e+03,1.405740e+03
2.529186e+03,1.403961e+03
2.540757e+03,1.388481e+03
2.552328e+03,1.384379e+03
2.563898e+03,1.361110e+03
2.575469e+03,1.342530e+03
2.587040e+03,1.314912e+03
2.598611e+03,1.304106e+03
2.610182e+03,1.302919e+03
2.621752e+03,1.283887e+03
2.633323e+03,1.259630e+03
2.644894e+03,1.267113e+03
2.656465e+03,1.239845e+03
2.668036e+03,1.239132e+03
2.679606e+03,1.215218e+03
2.691177e+03,1.205389e+03
2.702748e+03,1.193449e+03
2.714319e+03,1.165865e+03
2.725890e+03,1.180337e+03
2.737460e+03,1.150980e+03
2.749031e+03,1.157994e+03
2.760602e+03,1.134509e+03
2.772173e+03,1.132871e+03
2.783744e+03,1.110850e+03
2.795314e+03,1.100062e+03
2.806885e+03,1.095982e+03
2.818456e+03,1.082327e+03
2.830027e+03,1.066035e+03
2.841598e+03,1.092580e+03
2.853168e+03,1.083746e+03
2.864739e+03,1.067783e+03
2.876310e+03,1.056075e+03
2.887881e+03,1.081409e+03
2.899452e+03,1.055203e+03
2.911022e+03,1.056453e+03
2.922593e+03,1.040860e+03
2.934164e+03,1.018023e+03
2.945735e+03,1.026403e+03
2.957306e+03,1.034868e+03
2.968876e+03,9.889396e+02
2.980447e+03,9.722919e+02
2.992018e+03,9.821748e+02
3.003589e+03,9.605826e+02
3.015160e+03,9.406783e+02
3.026730e+03,9.470798e+02
3.038301e+03,9.626203e+02
3.049872e+03,9.248388e+02
3.061443e+03,9.279998e+02
3.073014e+03,9.210867e+02
3.084584e+03,9.046879e+02
3.096155e+03,9.170449e+02
3.107726e+03,8.739857e+02
3.119297e+03,8.805103e+02
3.130868e+03,9.397481e+02
3.142438e+03,9.110108e+02
3.154009e+03,9.053489e+02
3.165580e+03,9.067293e+02
3.177151e+03,9.493268e+02
3.188722e+03,9.066360e+02
3.200292e+03,9.746342e+02
3.211863e+03,0.000000e+00
3.223434e+03,0.000000e+00
3.235005e+03,0.000000e+00
3.246576e+03,0.000000e+00
3.258146e+03,0.000000e+00
3.269717e+03,0.000000e+00
3.281288e+03,0.000000e+00
3.292859e+03,0.000000e+00
3.304430e+03,0.000000e+00
3.316000e+03,0.000000e+00
3.327571e+03,0.000000e+00
3.339142e+03,0.000000e+00
3.350713e+03,0.000000e+00
3.362284e+03,0.000000e+00
3.373854e+03,0.000000e+00
3.385425e+03,0.000000e+00
3.396996e+03,0.000000e+00
3.408567e+03,0.000000e+00
3.420138e+03,0.000000e+00
3.431708e+03,0.000000e+00
3.443279e+03,0.000000e+00
3.454850e+03,0.000000e+00
3.466421e+03,0.000000e+00
3.477992e+03,0.000000e+00
3.489563e+03,0.000000e+00
3.500169e+03,0.000000e+00