File: RAMAN_data/19072023_r1/red fibre1.CSV
9.931763e+01,0.000000e+00
1.108884e+02,0.000000e+00
1.224592e+02,0.000000e+00
1.340300e+02,0.000000e+00
1.456008e+02,0.000000e+00
1.571716e+02,0.000000e+00
1.687424e+02,0.000000e+00
1.803132e+02,0.000000e+00
1.918840e+02,0.000000e+00
2.034548e+02,3.009192e+03
2.150256e+02,3.020331e+03
2.265964e+02,3.020633e+03
2.381673e+02,3.051660e+03
2.497381e+02,3.052871e+03
2.613088e+02,3.084627e+03
2.728796e+02,3.092143e+03
2.844504e+02,3.098864e+03
2.960212e+02,3.095043e+03
3.075920e+02,3.115526e+03
3.191628e+02,3.114510e+03
3.307336e+02,3.128448e+03
3.423044e+02,3.143323e+03
3.538752e+02,3.131545e+03
3.654461e+02,3.145466e+03
3.770169e+02,3.166864e+03
3.885877e+02,3.158274e+03
4.001585e+02,3.145107e+03
4.117293e+02,3.158384e+03
4.233001e+02,3.156880e+03
4.348709e+02,3.174084e+03
4.464417e+02,3.153308e+03
4.580125e+02,3.154447e+03
4.695833e+02,3.149881e+03
4.811541e+02,3.152025e+03
4.927249e+02,3.140689e+03
5.042957e+02,3.148303e+03
5.158665e+02,3.131808e+03
5.274373e+02,3.148022e+03
5.390081e+02,3.128562e+03
5.505789e+02,3.116224e+03
5.621497e+02,3.094489e+03
5.737205e+02,3.119635e+03
5.852913e+02,3.113000e+03
5.968621e+02,3.094694e+03
6.084329e+02,3.089708e+03
6.200037e+02,3.074370e+03
6.315745e+02,3.079958e+03
6.431453e+02,3.055157e+03
6.547161e+02,3.048880e+03
6.662869e+02,3.038181e+03
6.778577e+02,3.027532e+03
6.894285e+02,3.015837e+03
7.009993e+02,3.013027e+03
7.125701e+02,3.008110e+03
7.241409e+02,2.977654e+03
7.357117e+02,2.963712e+03
7.472825e+02,2.971634e+03
7.588533e+02,2.925642e+03
7.704241e+02,2.929153e+03
7.819949e+02,2.923909e+03
7.935657e+02,2.901147e+03
8.051365e+02,2.876262e+03
8.167073e+02,2.882443e+03
8.282781e+02,2.857450e+03
8.398489e+02,2.852132e+03
8.514197e+02,2.830168e+03
8.629905e+02,2.829664e+03
8.745613e+02,2.812499e+03
8.861321e+02,2.806954e+03
8.977029e+02,2.769313e+03
9.092737e+02,2.749692e+03
9.208445e+02,2.745717e+03
9.324153e+02,2.740389e+03
9.439861e+02,2.714575e+03
9.555569e+02,2.699367e+03
9.671277e+02,2.696916e+03
9.786985e+02,2.679953e+03
9.902693e+02,2.653552e+03
1.001840e+03,2.645356e+03
1.013411e+03,2.626089e+03
1.024982e+03,2.607782e+03
1.036552e+03,2.586010e+03
1.048123e+03,2.576655e+03
1.059694e+03,2.568419e+03
1.071265e+03,2.555451e+03
1.082836e+03,2.558765e+03
1.094406e+03,2.560187e+03
1.105977e+03,2.536176e+03
1.117548e+03,2.518067e+03
1.129119e+03,2.491116e+03
1.140690e+03,2.467773e+03
1.152261e+03,2.454352e+03
1.163831e+03,2.437979e+03
1.175402e+03,2.431102e+03
1.186973e+03,2.403600e+03
1.198544e+03,2.401492e+03
1.210115e+03,2.393130e+03
1.221685e+03,2.374288e+03
1.233256e+03,2.362379e+03
1.244827e+03,2.351249e+03
1.256398e+03,2.337782e+03
1.267969e+03,2.320925e+03
1.279539e+03,2.308104e+03
1.291110e+03,2.291377e+03
1.302681e+03,2.290196e+03
1.314252e+03,2.276627e+03
1.325823e+03,2.264155e+03
1.337393e+03,2.274801e+03
1.348964e+03,2.260454e+03
1.360535e+03,2.230858e+03
1.372106e+03,2.222737e+03
1.383677e+03,2.215727e+03
1.395247e+03,2.179124e+03
1.406818e+03,2.172989e+03
1.418389e+03,2.151150e+03
1.429960e+03,2.148946e+03
1.441531e+03,2.135911e+03
1.453101e+03,2.117196e+03
1.464672e+03,2.102397e+03
1.476243e+03,2.100645e+03
1.487814e+03,2.088130e+03
1.499385e+03,2.055539e+03
1.510955e+03,2.044761e+03
1.522526e+03,2.036022e+03
1.534097e+03,2.024968e+03
1.545668e+03,2.016146e+03
1.557239e+03,1.998779e+03
1.568809e+03,1.997508e+03
1.580380e+03,1.963195e+03
1.591951e+03,1.953707e+03
1.603522e+03,1.931133e+03
1.615093e+03,1.934682e+03
1.626663e+03,1.907936e+03
1.638234e+03,1.902075e+03
1.649805e+03,1.886656e+03
1.661376e+03,1.864288e+03
1.672947e+03,1.859138e+03
1.684517e+03,1.846119e+03
1.696088e+03,1.822815e+03
1.707659e+03,1.825638e+03
1.719230e+03,1.796043e+03
1.730801e+03,1.782547e+03
1.742371e+03,1.775406e+03
1.753942e+03,1.765128e+03
1.765513e+03,1.734047e+03
1.777084e+03,1.713341e+03
1.788655e+03,1.702577e+03
1.800225e+03,1.687551e+03
1.811796e+03,1.685256e+03
1.823367e+03,1.652029e+03
1.834938e+03,1.641309e+03
1.846509e+03,1.653807e+03
1.858079e+03,1.611781e+03
1.869650e+03,1.593984e+03
1.881221e+03,1.589119e+03
1.892792e+03,1.585440e+03
1.904363e+03,1.558059e+03
1.915933e+03,1.522213e+03
1.927504e+03,1.533530e+03
1.939075e+03,1.503426e+03
1.950646e+03,1.500660e+03
1.962217e+03,1.496700e+03
1.973787e+03,1.462564e+03
1.985358e+03,1.458113e+03
1.996929e+03,1.440152e+03
2.008500e+03,1.430377e+03
2.020071e+03,1.400453e+03
2.031641e+03,1.387693e+03
2.043212e+03,1.368527e+03
2.054783e+03,1.352098e+03
2.066354e+03,1.343236e+03
2.077925e+03,1.324127e+03
2.089496e+03,1.323663e+03
2.101066e+03,1.302930e+03
2.112637e+03,1.282091e+03
2.124208e+03,1.279506e+03
2.135779e+03,1.263462e+03
2.147350e+03,1.229009e+03
2.158920e+03,1.236413e+03
2.170491e+03,1.225457e+03
2.182062e+03,1.200698e+03
2.193633e+03,1.180207e+03
2.205204e+03,1.172900e+03
2.216774e+03,1.167464e+03
2.228345e+03,1.132593e+03
2.239916e+03,1.128011e+03
2.251487e+03,1.129505e+03
2.263058e+03,1.108336e+03
2.274628e+03,1.086707e+03
2.286199e+03,1.083011e+03
2.297770e+03,1.070497e+03
2.309341e+03,1.047143e+03
2.320912e+03,1.047939e+03
2.332482e+03,1.026458e+03
2.344053e+03,1.027866e+03
2.355624e+03,1.001725e+03
2.367195e+03,9.862215e+02
2.378766e+03,9.831678e+02
2.390336e+03,9.629022e+02
2.401907e+03,9.636068e+02
2.413478e+03,9.563246e+02
2.425049e+03,9.367245e+02
2.436620e+03,9.252595e+02
2.448190e+03,9.088538e+02
2.459761e+03,9.073203e+02
2.471332e+03,8.914665e+02
2.482903e+03,8.870201e+02
2.494474e+03,8.784746e+02
2.506044e+03,8.790727e+02
2.517615e+03,8.644547e+02
2.529186e+03,8.451965e+02
2.540757e+03,8.476150e+02
2.552328e+03,8.379843e+02
2.563898e+03,8.403580e+02
2.575469e+03,8.332719e+02
2.587040e+03,8.091607e+02
2.598611e+03,7.849824e+02
2.610182e+03,7.936335e+02
2.621752e+03,7.945360e+02
2.633323e+03,7.913014e+02
2.644894e+03,7.770433e+02
2.656465e+03,7.588944e+02
2.668036e+03,7.546279e+02
2.679606e+03,7.399808e+02
2.691177e+03,7.327289e+02
2.702748e+03,7.330448e+02
2.714319e+03,7.311424e+02
2.725890e+03,7.196719e+02
2.737460e+03,7.102282e+02
2.749031e+03,6.910197e+02
2.760602e+03,7.183309e+02
2.772173e+03,6.911277e+02
2.783744e+03,6.908297e+02
2.795314e+03,6.862207e+02
2.806885e+03,6.616106e+02
2.818456e+03,6.786324e+02
2.830027e+03,6.715204e+02
2.841598e+03,6.678661e+02
2.853168e+03,6.606730e+02
2.864739e+03,6.678495e+02
2.876310e+03,6.607591e+02
2.887881e+03,6.679778e+02
2.899452e+03,6.613180e+02
2.911022e+03,6.473937e+02
2.922593e+03,6.446096e+02
2.934164e+03,6.304435e+02
2.945735e+03,6.395023e+02
2.957306e+03,6.811558e+02
2.968876e+03,6.310643e+02
2.980447e+03,6.070526e+02
2.992018e+03,5.921780e+02
3.003589e+03,5.621948e+02
3.015160e+03,5.943487e+02
3.026730e+03,5.609078e+02
3.038301e+03,5.905256e+02
3.049872e+03,5.657507e+02
3.061443e+03,5.826173e+02
3.073014e+03,5.778552e+02
3.084584e+03,5.682947e+02
3.096155e+03,5.667414e+02
3.107726e+03,5.668945e+02
3.119297e+03,5.657764e+02
3.130868e+03,5.758506e+02
3.142438e+03,5.892574e+02
3.154009e+03,5.584477e+02
3.165580e+03,6.060711e+02
3.177151e+03,5.686699e+02
3.188722e+03,5.745682e+02
3.200292e+03,6.046061e+02
3.211863e+03,0.000000e+00
3.223434e+03,0.000000e+00
3.235005e+03,0.000000e+00
3.246576e+03,0.000000e+00
3.258146e+03,0.000000e+00
3.269717e+03,0.000000e+00
3.281288e+03,0.000000e+00
3.292859e+03,0.000000e+00
3.304430e+03,0.000000e+00
3.316000e+03,0.000000e+00
3.327571e+03,0.000000e+00
3.339142e+03,0.000000e+00
3.350713e+03,0.000000e+00
3.362284e+03,0.000000e+00
3.373854e+03,0.000000e+00
3.385425e+03,0.000000e+00
3.396996e+03,0.000000e+00
3.408567e+03,0.000000e+00
3.420138e+03,0.000000e+00
3.431708e+03,0.000000e+00
3.443279e+03,0.000000e+00
3.454850e+03,0.000000e+00
3.466421e+03,0.000000e+00
3.477992e+03,0.000000e+00
3.489563e+03,0.000000e+00
3.500169e+03,0.000000e+00