File: RAMAN_data/12022024_r2/black fibre3.CSV
9.931763e+01,0.000000e+00
1.108884e+02,0.000000e+00
1.224592e+02,0.000000e+00
1.340300e+02,0.000000e+00
1.456008e+02,0.000000e+00
1.571716e+02,0.000000e+00
1.687424e+02,0.000000e+00
1.803132e+02,0.000000e+00
1.918840e+02,0.000000e+00
2.034548e+02,6.649938e+02
2.150256e+02,6.679297e+02
2.265964e+02,6.657157e+02
2.381673e+02,6.618476e+02
2.497381e+02,6.686982e+02
2.613088e+02,6.618207e+02
2.728796e+02,6.681943e+02
2.844504e+02,6.579771e+02
2.960212e+02,6.570058e+02
3.075920e+02,6.657020e+02
3.191628e+02,6.737428e+02
3.307336e+02,6.722277e+02
3.423044e+02,6.800750e+02
3.538752e+02,6.730115e+02
3.654461e+02,6.670291e+02
3.770169e+02,6.961609e+02
3.885877e+02,6.742881e+02
4.001585e+02,6.641824e+02
4.117293e+02,6.663152e+02
4.233001e+02,6.730519e+02
4.348709e+02,6.787379e+02
4.464417e+02,6.734423e+02
4.580125e+02,6.773278e+02
4.695833e+02,6.547314e+02
4.811541e+02,6.659836e+02
4.927249e+02,6.667975e+02
5.042957e+02,6.628369e+02
5.158665e+02,6.675242e+02
5.274373e+02,6.627940e+02
5.390081e+02,6.533067e+02
5.505789e+02,6.509521e+02
5.621497e+02,6.675850e+02
5.737205e+02,6.571871e+02
5.852913e+02,6.643195e+02
5.968621e+02,6.482584e+02
6.084329e+02,6.566238e+02
6.200037e+02,6.514910e+02
6.315745e+02,6.546118e+02
6.431453e+02,6.576437e+02
6.547161e+02,6.465045e+02
6.662869e+02,6.531718e+02
6.778577e+02,6.464791e+02
6.894285e+02,6.510570e+02
7.009993e+02,6.503106e+02
7.125701e+02,6.513580e+02
7.241409e+02,6.512853e+02
7.357117e+02,6.566058e+02
7.472825e+02,6.436543e+02
7.588533e+02,6.426149e+02
7.704241e+02,6.476983e+02
7.819949e+02,6.503138e+02
7.935657e+02,6.487155e+02
8.051365e+02,6.463560e+02
8.167073e+02,6.422877e+02
8.282781e+02,6.414863e+02
8.398489e+02,6.482549e+02
8.514197e+02,6.416938e+02
8.629905e+02,6.456149e+02
8.745613e+02,6.425114e+02
8.861321e+02,6.519040e+02
8.977029e+02,6.424778e+02
9.092737e+02,6.460656e+02
9.208445e+02,6.370149e+02
9.324153e+02,6.398754e+02
9.439861e+02,6.330324e+02
9.555569e+02,6.452039e+02
9.671277e+02,6.411960e+02
9.786985e+02,6.352899e+02
9.902693e+02,6.443018e+02
1.001840e+03,6.405827e+02
1.013411e+03,6.389359e+02
1.024982e+03,6.430511e+02
1.036552e+03,6.502410e+02
1.048123e+03,6.462496e+02
1.059694e+03,6.461120e+02
1.071265e+03,6.522211e+02
1.082836e+03,6.597097e+02
1.094406e+03,6.902783e+02
1.105977e+03,6.628776e+02
1.117548e+03,6.786452e+02
1.129119e+03,6.622057e+02
1.140690e+03,6.520027e+02
1.152261e+03,6.598656e+02
1.163831e+03,6.543984e+02
1.175402e+03,6.418226e+02
1.186973e+03,6.458264e+02
1.198544e+03,6.467601e+02
1.210115e+03,6.561957e+02
1.221685e+03,6.510355e+02
1.233256e+03,6.508241e+02
1.244827e+03,6.611541e+02
1.256398e+03,6.624818e+02
1.267969e+03,6.523810e+02
1.279539e+03,6.700194e+02
1.291110e+03,6.708187e+02
1.302681e+03,6.704464e+02
1.314252e+03,6.804383e+02
1.325823e+03,6.825518e+02
1.337393e+03,6.832053e+02
1.348964e+03,6.808268e+02
1.360535e+03,6.888162e+02
1.372106e+03,6.944229e+02
1.383677e+03,6.851185e+02
1.395247e+03,6.725266e+02
1.406818e+03,6.644439e+02
1.418389e+03,6.622537e+02
1.429960e+03,6.624755e+02
1.441531e+03,6.578478e+02
1.453101e+03,6.561119e+02
1.464672e+03,6.637847e+02
1.476243e+03,6.626595e+02
1.487814e+03,6.499238e+02
1.499385e+03,6.463926e+02
1.510955e+03,6.448566e+02
1.522526e+03,6.487888e+02
1.534097e+03,6.522701e+02
1.545668e+03,6.631390e+02
1.557239e+03,6.616684e+02
1.568809e+03,6.709245e+02
1.580380e+03,6.750169e+02
1.591951e+03,6.705705e+02
1.603522e+03,6.743005e+02
1.615093e+03,6.616800e+02
1.626663e+03,6.474268e+02
1.638234e+03,6.323770e+02
1.649805e+03,6.360557e+02
1.661376e+03,6.299252e+02
1.672947e+03,6.339919e+02
1.684517e+03,6.391005e+02
1.696088e+03,6.271519e+02
1.707659e+03,6.266891e+02
1.719230e+03,6.288500e+02
1.730801e+03,6.174889e+02
1.742371e+03,6.253150e+02
1.753942e+03,6.232391e+02
1.765513e+03,6.284154e+02
1.777084e+03,6.195437e+02
1.788655e+03,6.113147e+02
1.800225e+03,6.169642e+02
1.811796e+03,6.167038e+02
1.823367e+03,6.109232e+02
1.834938e+03,6.175203e+02
1.846509e+03,6.172646e+02
1.858079e+03,6.186140e+02
1.869650e+03,6.055519e+02
1.881221e+03,6.176155e+02
1.892792e+03,6.041668e+02
1.904363e+03,6.076658e+02
1.915933e+03,6.037893e+02
1.927504e+03,6.141195e+02
1.939075e+03,5.987607e+02
1.950646e+03,6.048828e+02
1.962217e+03,5.961479e+02
1.973787e+03,6.040492e+02
1.985358e+03,6.042198e+02
1.996929e+03,5.880500e+02
2.008500e+03,5.843239e+02
2.020071e+03,5.889182e+02
2.031641e+03,5.916888e+02
2.043212e+03,5.840275e+02
2.054783e+03,5.912248e+02
2.066354e+03,5.798477e+02
2.077925e+03,5.870537e+02
2.089496e+03,5.837146e+02
2.101066e+03,5.816797e+02
2.112637e+03,5.748580e+02
2.124208e+03,5.846493e+02
2.135779e+03,5.733721e+02
2.147350e+03,5.650950e+02
2.158920e+03,5.710925e+02
2.170491e+03,5.680945e+02
2.182062e+03,5.574012e+02
2.193633e+03,5.670428e+02
2.205204e+03,5.787869e+02
2.216774e+03,5.698597e+02
2.228345e+03,5.602464e+02
2.239916e+03,5.641758e+02
2.251487e+03,5.583135e+02
2.263058e+03,5.549269e+02
2.274628e+03,5.535873e+02
2.286199e+03,5.537201e+02
2.297770e+03,5.464345e+02
2.309341e+03,5.491722e+02
2.320912e+03,5.494432e+02
2.332482e+03,5.487169e+02
2.344053e+03,5.494961e+02
2.355624e+03,5.387055e+02
2.367195e+03,5.358708e+02
2.378766e+03,5.346070e+02
2.390336e+03,5.303934e+02
2.401907e+03,5.391656e+02
2.413478e+03,5.296540e+02
2.425049e+03,5.304146e+02
2.436620e+03,5.287811e+02
2.448190e+03,5.275989e+02
2.459761e+03,5.375204e+02
2.471332e+03,5.139866e+02
2.482903e+03,5.261497e+02
2.494474e+03,5.230679e+02
2.506044e+03,5.204442e+02
2.517615e+03,5.354329e+02
2.529186e+03,5.294736e+02
2.540757e+03,5.294141e+02
2.552328e+03,5.308665e+02
2.563898e+03,5.366136e+02
2.575469e+03,5.258134e+02
2.587040e+03,5.167496e+02
2.598611e+03,5.246418e+02
2.610182e+03,5.160484e+02
2.621752e+03,5.101385e+02
2.633323e+03,5.183962e+02
2.644894e+03,5.065434e+02
2.656465e+03,5.180060e+02
2.668036e+03,5.243762e+02
2.679606e+03,5.148739e+02
2.691177e+03,5.183004e+02
2.702748e+03,5.153224e+02
2.714319e+03,5.205701e+02
2.725890e+03,5.212249e+02
2.737460e+03,5.139579e+02
2.749031e+03,5.216090e+02
2.760602e+03,5.158612e+02
2.772173e+03,5.066007e+02
2.783744e+03,5.084598e+02
2.795314e+03,4.983940e+02
2.806885e+03,5.211107e+02
2.818456e+03,5.230338e+02
2.830027e+03,5.125448e+02
2.841598e+03,5.323889e+02
2.853168e+03,5.469775e+02
2.864739e+03,5.315824e+02
2.876310e+03,5.448461e+02
2.887881e+03,5.546318e+02
2.899452e+03,5.636437e+02
2.911022e+03,5.570765e+02
2.922593e+03,5.356454e+02
2.934164e+03,5.333483e+02
2.945735e+03,5.436491e+02
2.957306e+03,5.634440e+02
2.968876e+03,5.425826e+02
2.980447e+03,5.023723e+02
2.992018e+03,5.150092e+02
3.003589e+03,4.968389e+02
3.015160e+03,4.987557e+02
3.026730e+03,4.959922e+02
3.038301e+03,5.036891e+02
3.049872e+03,4.964574e+02
3.061443e+03,4.967389e+02
3.073014e+03,5.035616e+02
3.084584e+03,5.099128e+02
3.096155e+03,4.980465e+02
3.107726e+03,5.329201e+02
3.119297e+03,5.230012e+02
3.130868e+03,5.046313e+02
3.142438e+03,5.190769e+02
3.154009e+03,5.219053e+02
3.165580e+03,5.124037e+02
3.177151e+03,5.248351e+02
3.188722e+03,4.910148e+02
3.200292e+03,5.375706e+02
3.211863e+03,0.000000e+00
3.223434e+03,0.000000e+00
3.235005e+03,0.000000e+00
3.246576e+03,0.000000e+00
3.258146e+03,0.000000e+00
3.269717e+03,0.000000e+00
3.281288e+03,0.000000e+00
3.292859e+03,0.000000e+00
3.304430e+03,0.000000e+00
3.316000e+03,0.000000e+00
3.327571e+03,0.000000e+00
3.339142e+03,0.000000e+00
3.350713e+03,0.000000e+00
3.362284e+03,0.000000e+00
3.373854e+03,0.000000e+00
3.385425e+03,0.000000e+00
3.396996e+03,0.000000e+00
3.408567e+03,0.000000e+00
3.420138e+03,0.000000e+00
3.431708e+03,0.000000e+00
3.443279e+03,0.000000e+00
3.454850e+03,0.000000e+00
3.466421e+03,0.000000e+00
3.477992e+03,0.000000e+00
3.489563e+03,0.000000e+00
3.500169e+03,0.000000e+00