File: RAMAN_data/12022024_r2/black fibre2.CSV
9.931763e+01,0.000000e+00
1.108884e+02,0.000000e+00
1.224592e+02,0.000000e+00
1.340300e+02,0.000000e+00
1.456008e+02,0.000000e+00
1.571716e+02,0.000000e+00
1.687424e+02,0.000000e+00
1.803132e+02,0.000000e+00
1.918840e+02,0.000000e+00
2.034548e+02,1.959795e+03
2.150256e+02,1.964653e+03
2.265964e+02,1.959537e+03
2.381673e+02,1.973308e+03
2.497381e+02,1.959609e+03
2.613088e+02,1.953130e+03
2.728796e+02,1.956237e+03
2.844504e+02,1.954958e+03
2.960212e+02,1.953139e+03
3.075920e+02,1.948150e+03
3.191628e+02,1.949216e+03
3.307336e+02,1.943080e+03
3.423044e+02,1.951459e+03
3.538752e+02,1.937246e+03
3.654461e+02,1.927881e+03
3.770169e+02,1.947072e+03
3.885877e+02,1.927752e+03
4.001585e+02,1.908272e+03
4.117293e+02,1.908564e+03
4.233001e+02,1.913538e+03
4.348709e+02,1.901917e+03
4.464417e+02,1.901949e+03
4.580125e+02,1.888407e+03
4.695833e+02,1.892810e+03
4.811541e+02,1.893444e+03
4.927249e+02,1.880449e+03
5.042957e+02,1.883731e+03
5.158665e+02,1.869778e+03
5.274373e+02,1.885447e+03
5.390081e+02,1.864617e+03
5.505789e+02,1.858939e+03
5.621497e+02,1.861651e+03
5.737205e+02,1.857260e+03
5.852913e+02,1.863677e+03
5.968621e+02,1.848873e+03
6.084329e+02,1.838655e+03
6.200037e+02,1.821552e+03
6.315745e+02,1.833884e+03
6.431453e+02,1.815326e+03
6.547161e+02,1.812123e+03
6.662869e+02,1.810395e+03
6.778577e+02,1.802258e+03
6.894285e+02,1.780759e+03
7.009993e+02,1.799984e+03
7.125701e+02,1.777722e+03
7.241409e+02,1.772822e+03
7.357117e+02,1.768290e+03
7.472825e+02,1.758003e+03
7.588533e+02,1.757668e+03
7.704241e+02,1.743582e+03
7.819949e+02,1.731863e+03
7.935657e+02,1.730464e+03
8.051365e+02,1.725788e+03
8.167073e+02,1.716823e+03
8.282781e+02,1.713385e+03
8.398489e+02,1.720761e+03
8.514197e+02,1.704389e+03
8.629905e+02,1.694112e+03
8.745613e+02,1.693744e+03
8.861321e+02,1.699356e+03
8.977029e+02,1.670673e+03
9.092737e+02,1.660632e+03
9.208445e+02,1.656841e+03
9.324153e+02,1.663733e+03
9.439861e+02,1.649312e+03
9.555569e+02,1.647816e+03
9.671277e+02,1.650656e+03
9.786985e+02,1.638108e+03
9.902693e+02,1.624649e+03
1.001840e+03,1.621025e+03
1.013411e+03,1.609264e+03
1.024982e+03,1.604621e+03
1.036552e+03,1.592267e+03
1.048123e+03,1.592389e+03
1.059694e+03,1.586439e+03
1.071265e+03,1.588351e+03
1.082836e+03,1.589662e+03
1.094406e+03,1.560153e+03
1.105977e+03,1.570097e+03
1.117548e+03,1.557578e+03
1.129119e+03,1.554093e+03
1.140690e+03,1.558936e+03
1.152261e+03,1.555505e+03
1.163831e+03,1.558943e+03
1.175402e+03,1.540382e+03
1.186973e+03,1.530124e+03
1.198544e+03,1.533307e+03
1.210115e+03,1.536752e+03
1.221685e+03,1.521000e+03
1.233256e+03,1.518063e+03
1.244827e+03,1.523082e+03
1.256398e+03,1.515787e+03
1.267969e+03,1.515482e+03
1.279539e+03,1.523938e+03
1.291110e+03,1.532165e+03
1.302681e+03,1.526312e+03
1.314252e+03,1.571758e+03
1.325823e+03,1.595850e+03
1.337393e+03,1.544780e+03
1.348964e+03,1.551285e+03
1.360535e+03,1.521443e+03
1.372106e+03,1.477759e+03
1.383677e+03,1.469528e+03
1.395247e+03,1.467118e+03
1.406818e+03,1.445360e+03
1.418389e+03,1.439512e+03
1.429960e+03,1.434997e+03
1.441531e+03,1.425581e+03
1.453101e+03,1.411413e+03
1.464672e+03,1.405032e+03
1.476243e+03,1.398380e+03
1.487814e+03,1.385415e+03
1.499385e+03,1.385765e+03
1.510955e+03,1.362870e+03
1.522526e+03,1.363948e+03
1.534097e+03,1.357180e+03
1.545668e+03,1.361032e+03
1.557239e+03,1.361177e+03
1.568809e+03,1.358089e+03
1.580380e+03,1.357862e+03
1.591951e+03,1.357409e+03
1.603522e+03,1.354502e+03
1.615093e+03,1.323400e+03
1.626663e+03,1.310155e+03
1.638234e+03,1.309374e+03
1.649805e+03,1.294450e+03
1.661376e+03,1.275630e+03
1.672947e+03,1.266485e+03
1.684517e+03,1.272738e+03
1.696088e+03,1.244533e+03
1.707659e+03,1.248479e+03
1.719230e+03,1.241432e+03
1.730801e+03,1.230451e+03
1.742371e+03,1.225842e+03
1.753942e+03,1.209082e+03
1.765513e+03,1.216642e+03
1.777084e+03,1.202930e+03
1.788655e+03,1.197113e+03
1.800225e+03,1.182865e+03
1.811796e+03,1.181081e+03
1.823367e+03,1.169684e+03
1.834938e+03,1.166554e+03
1.846509e+03,1.168039e+03
1.858079e+03,1.156255e+03
1.869650e+03,1.148950e+03
1.881221e+03,1.146009e+03
1.892792e+03,1.136545e+03
1.904363e+03,1.123302e+03
1.915933e+03,1.125051e+03
1.927504e+03,1.112072e+03
1.939075e+03,1.102246e+03
1.950646e+03,1.089162e+03
1.962217e+03,1.081239e+03
1.973787e+03,1.090733e+03
1.985358e+03,1.063879e+03
1.996929e+03,1.059165e+03
2.008500e+03,1.053737e+03
2.020071e+03,1.040598e+03
2.031641e+03,1.048602e+03
2.043212e+03,1.028372e+03
2.054783e+03,1.012564e+03
2.066354e+03,1.015575e+03
2.077925e+03,1.015612e+03
2.089496e+03,9.995558e+02
2.101066e+03,9.953368e+02
2.112637e+03,9.761536e+02
2.124208e+03,9.747830e+02
2.135779e+03,9.617849e+02
2.147350e+03,9.478922e+02
2.158920e+03,9.481954e+02
2.170491e+03,9.354825e+02
2.182062e+03,9.147822e+02
2.193633e+03,9.172731e+02
2.205204e+03,9.120639e+02
2.216774e+03,8.960668e+02
2.228345e+03,8.911411e+02
2.239916e+03,8.786879e+02
2.251487e+03,8.831477e+02
2.263058e+03,8.840014e+02
2.274628e+03,8.631194e+02
2.286199e+03,8.448936e+02
2.297770e+03,8.559174e+02
2.309341e+03,8.525553e+02
2.320912e+03,8.351598e+02
2.332482e+03,8.155226e+02
2.344053e+03,8.216578e+02
2.355624e+03,8.034425e+02
2.367195e+03,7.828992e+02
2.378766e+03,7.878876e+02
2.390336e+03,7.889161e+02
2.401907e+03,7.787657e+02
2.413478e+03,7.780107e+02
2.425049e+03,7.626263e+02
2.436620e+03,7.640527e+02
2.448190e+03,7.525273e+02
2.459761e+03,7.415165e+02
2.471332e+03,7.408629e+02
2.482903e+03,7.388334e+02
2.494474e+03,7.249291e+02
2.506044e+03,7.307939e+02
2.517615e+03,7.146689e+02
2.529186e+03,7.136210e+02
2.540757e+03,7.096104e+02
2.552328e+03,7.067470e+02
2.563898e+03,7.181463e+02
2.575469e+03,7.136252e+02
2.587040e+03,6.891412e+02
2.598611e+03,6.827803e+02
2.610182e+03,6.903322e+02
2.621752e+03,6.774830e+02
2.633323e+03,6.665422e+02
2.644894e+03,6.629811e+02
2.656465e+03,6.744050e+02
2.668036e+03,6.635739e+02
2.679606e+03,6.536263e+02
2.691177e+03,6.575754e+02
2.702748e+03,6.570179e+02
2.714319e+03,6.506902e+02
2.725890e+03,6.350657e+02
2.737460e+03,6.360305e+02
2.749031e+03,6.267029e+02
2.760602e+03,6.298569e+02
2.772173e+03,6.253976e+02
2.783744e+03,6.268799e+02
2.795314e+03,6.094346e+02
2.806885e+03,5.985283e+02
2.818456e+03,6.058280e+02
2.830027e+03,5.952554e+02
2.841598e+03,6.097404e+02
2.853168e+03,6.071755e+02
2.864739e+03,6.115421e+02
2.876310e+03,6.082930e+02
2.887881e+03,5.866190e+02
2.899452e+03,6.037831e+02
2.911022e+03,5.940872e+02
2.922593e+03,5.937748e+02
2.934164e+03,6.099318e+02
2.945735e+03,5.870539e+02
2.957306e+03,6.213712e+02
2.968876e+03,5.863824e+02
2.980447e+03,5.642495e+02
2.992018e+03,5.700040e+02
3.003589e+03,5.712299e+02
3.015160e+03,5.433281e+02
3.026730e+03,5.602129e+02
3.038301e+03,5.575485e+02
3.049872e+03,5.360374e+02
3.061443e+03,5.247907e+02
3.073014e+03,5.379279e+02
3.084584e+03,5.368619e+02
3.096155e+03,5.294744e+02
3.107726e+03,5.503875e+02
3.119297e+03,5.343903e+02
3.130868e+03,5.349547e+02
3.142438e+03,5.423779e+02
3.154009e+03,5.724662e+02
3.165580e+03,5.023487e+02
3.177151e+03,5.112530e+02
3.188722e+03,5.476265e+02
3.200292e+03,5.557450e+02
3.211863e+03,0.000000e+00
3.223434e+03,0.000000e+00
3.235005e+03,0.000000e+00
3.246576e+03,0.000000e+00
3.258146e+03,0.000000e+00
3.269717e+03,0.000000e+00
3.281288e+03,0.000000e+00
3.292859e+03,0.000000e+00
3.304430e+03,0.000000e+00
3.316000e+03,0.000000e+00
3.327571e+03,0.000000e+00
3.339142e+03,0.000000e+00
3.350713e+03,0.000000e+00
3.362284e+03,0.000000e+00
3.373854e+03,0.000000e+00
3.385425e+03,0.000000e+00
3.396996e+03,0.000000e+00
3.408567e+03,0.000000e+00
3.420138e+03,0.000000e+00
3.431708e+03,0.000000e+00
3.443279e+03,0.000000e+00
3.454850e+03,0.000000e+00
3.466421e+03,0.000000e+00
3.477992e+03,0.000000e+00
3.489563e+03,0.000000e+00
3.500169e+03,0.000000e+00