File: RAMAN_data/12022024_r2/black fibre9.CSV
9.931763e+01,0.000000e+00
1.108884e+02,0.000000e+00
1.224592e+02,0.000000e+00
1.340300e+02,0.000000e+00
1.456008e+02,0.000000e+00
1.571716e+02,0.000000e+00
1.687424e+02,0.000000e+00
1.803132e+02,0.000000e+00
1.918840e+02,0.000000e+00
2.034548e+02,5.204392e+03
2.150256e+02,5.240034e+03
2.265964e+02,5.285479e+03
2.381673e+02,5.340562e+03
2.497381e+02,5.362267e+03
2.613088e+02,5.427042e+03
2.728796e+02,5.466664e+03
2.844504e+02,5.501205e+03
2.960212e+02,5.516041e+03
3.075920e+02,5.528637e+03
3.191628e+02,5.575406e+03
3.307336e+02,5.591833e+03
3.423044e+02,5.619904e+03
3.538752e+02,5.644342e+03
3.654461e+02,5.662263e+03
3.770169e+02,5.731047e+03
3.885877e+02,5.713528e+03
4.001585e+02,5.738475e+03
4.117293e+02,5.752125e+03
4.233001e+02,5.764858e+03
4.348709e+02,5.777112e+03
4.464417e+02,5.789665e+03
4.580125e+02,5.796216e+03
4.695833e+02,5.837845e+03
4.811541e+02,5.816141e+03
4.927249e+02,5.833531e+03
5.042957e+02,5.859118e+03
5.158665e+02,5.896551e+03
5.274373e+02,5.868885e+03
5.390081e+02,5.880589e+03
5.505789e+02,5.869677e+03
5.621497e+02,5.911863e+03
5.737205e+02,5.882833e+03
5.852913e+02,5.913514e+03
5.968621e+02,5.927159e+03
6.084329e+02,5.930229e+03
6.200037e+02,5.970453e+03
6.315745e+02,5.939392e+03
6.431453e+02,5.950616e+03
6.547161e+02,5.954739e+03
6.662869e+02,5.962412e+03
6.778577e+02,5.943649e+03
6.894285e+02,5.943022e+03
7.009993e+02,5.974550e+03
7.125701e+02,5.981009e+03
7.241409e+02,5.946686e+03
7.357117e+02,5.953283e+03
7.472825e+02,5.980702e+03
7.588533e+02,5.966968e+03
7.704241e+02,5.960334e+03
7.819949e+02,6.005814e+03
7.935657e+02,5.978116e+03
8.051365e+02,5.978624e+03
8.167073e+02,5.986821e+03
8.282781e+02,5.993976e+03
8.398489e+02,6.006361e+03
8.514197e+02,5.997567e+03
8.629905e+02,5.985661e+03
8.745613e+02,6.017855e+03
8.861321e+02,6.017994e+03
8.977029e+02,6.014641e+03
9.092737e+02,6.009193e+03
9.208445e+02,6.010558e+03
9.324153e+02,6.023866e+03
9.439861e+02,6.026914e+03
9.555569e+02,6.012173e+03
9.671277e+02,6.028281e+03
9.786985e+02,6.040899e+03
9.902693e+02,6.045416e+03
1.001840e+03,6.056346e+03
1.013411e+03,6.070344e+03
1.024982e+03,6.092664e+03
1.036552e+03,6.115011e+03
1.048123e+03,6.107761e+03
1.059694e+03,6.103451e+03
1.071265e+03,6.151247e+03
1.082836e+03,6.141144e+03
1.094406e+03,6.161570e+03
1.105977e+03,6.166740e+03
1.117548e+03,6.209676e+03
1.129119e+03,6.181656e+03
1.140690e+03,6.220956e+03
1.152261e+03,6.268004e+03
1.163831e+03,6.271026e+03
1.175402e+03,6.263244e+03
1.186973e+03,6.298693e+03
1.198544e+03,6.357567e+03
1.210115e+03,6.359022e+03
1.221685e+03,6.369470e+03
1.233256e+03,6.371969e+03
1.244827e+03,6.426158e+03
1.256398e+03,6.408738e+03
1.267969e+03,6.414672e+03
1.279539e+03,6.446820e+03
1.291110e+03,6.467704e+03
1.302681e+03,6.480322e+03
1.314252e+03,6.522689e+03
1.325823e+03,6.527229e+03
1.337393e+03,6.563989e+03
1.348964e+03,6.562583e+03
1.360535e+03,6.524295e+03
1.372106e+03,6.515453e+03
1.383677e+03,6.522718e+03
1.395247e+03,6.522944e+03
1.406818e+03,6.517811e+03
1.418389e+03,6.499499e+03
1.429960e+03,6.522809e+03
1.441531e+03,6.496188e+03
1.453101e+03,6.476588e+03
1.464672e+03,6.485125e+03
1.476243e+03,6.518785e+03
1.487814e+03,6.506750e+03
1.499385e+03,6.499771e+03
1.510955e+03,6.480599e+03
1.522526e+03,6.505763e+03
1.534097e+03,6.486906e+03
1.545668e+03,6.498007e+03
1.557239e+03,6.546132e+03
1.568809e+03,6.598168e+03
1.580380e+03,6.582454e+03
1.591951e+03,6.567664e+03
1.603522e+03,6.558002e+03
1.615093e+03,6.500920e+03
1.626663e+03,6.450636e+03
1.638234e+03,6.417119e+03
1.649805e+03,6.357747e+03
1.661376e+03,6.368035e+03
1.672947e+03,6.333379e+03
1.684517e+03,6.331402e+03
1.696088e+03,6.346107e+03
1.707659e+03,6.320367e+03
1.719230e+03,6.290546e+03
1.730801e+03,6.270753e+03
1.742371e+03,6.257013e+03
1.753942e+03,6.239028e+03
1.765513e+03,6.238983e+03
1.777084e+03,6.207967e+03
1.788655e+03,6.206193e+03
1.800225e+03,6.173119e+03
1.811796e+03,6.201995e+03
1.823367e+03,6.170736e+03
1.834938e+03,6.154420e+03
1.846509e+03,6.087388e+03
1.858079e+03,6.107827e+03
1.869650e+03,6.034522e+03
1.881221e+03,6.032775e+03
1.892792e+03,6.038768e+03
1.904363e+03,5.988114e+03
1.915933e+03,5.950788e+03
1.927504e+03,5.982667e+03
1.939075e+03,5.937072e+03
1.950646e+03,5.905731e+03
1.962217e+03,5.898299e+03
1.973787e+03,5.883216e+03
1.985358e+03,5.856705e+03
1.996929e+03,5.829846e+03
2.008500e+03,5.829872e+03
2.020071e+03,5.742647e+03
2.031641e+03,5.752322e+03
2.043212e+03,5.711845e+03
2.054783e+03,5.682985e+03
2.066354e+03,5.643614e+03
2.077925e+03,5.637615e+03
2.089496e+03,5.587701e+03
2.101066e+03,5.573177e+03
2.112637e+03,5.536825e+03
2.124208e+03,5.561408e+03
2.135779e+03,5.519771e+03
2.147350e+03,5.435123e+03
2.158920e+03,5.461801e+03
2.170491e+03,5.415833e+03
2.182062e+03,5.379563e+03
2.193633e+03,5.364764e+03
2.205204e+03,5.350651e+03
2.216774e+03,5.326382e+03
2.228345e+03,5.245330e+03
2.239916e+03,5.203182e+03
2.251487e+03,5.226166e+03
2.263058e+03,5.163576e+03
2.274628e+03,5.147036e+03
2.286199e+03,5.101188e+03
2.297770e+03,5.131936e+03
2.309341e+03,5.062795e+03
2.320912e+03,5.050460e+03
2.332482e+03,4.996438e+03
2.344053e+03,5.048429e+03
2.355624e+03,4.988932e+03
2.367195e+03,4.919958e+03
2.378766e+03,4.923461e+03
2.390336e+03,4.891990e+03
2.401907e+03,4.873217e+03
2.413478e+03,4.863580e+03
2.425049e+03,4.847995e+03
2.436620e+03,4.828046e+03
2.448190e+03,4.739554e+03
2.459761e+03,4.728297e+03
2.471332e+03,4.712951e+03
2.482903e+03,4.748967e+03
2.494474e+03,4.698592e+03
2.506044e+03,4.658056e+03
2.517615e+03,4.670074e+03
2.529186e+03,4.664973e+03
2.540757e+03,4.614344e+03
2.552328e+03,4.583116e+03
2.563898e+03,4.563112e+03
2.575469e+03,4.588375e+03
2.587040e+03,4.511959e+03
2.598611e+03,4.460117e+03
2.610182e+03,4.468718e+03
2.621752e+03,4.496310e+03
2.633323e+03,4.438966e+03
2.644894e+03,4.402839e+03
2.656465e+03,4.438666e+03
2.668036e+03,4.403463e+03
2.679606e+03,4.336165e+03
2.691177e+03,4.392359e+03
2.702748e+03,4.380125e+03
2.714319e+03,4.314610e+03
2.725890e+03,4.279184e+03
2.737460e+03,4.262369e+03
2.749031e+03,4.274354e+03
2.760602e+03,4.232961e+03
2.772173e+03,4.241415e+03
2.783744e+03,4.184286e+03
2.795314e+03,4.208430e+03
2.806885e+03,4.173586e+03
2.818456e+03,4.172045e+03
2.830027e+03,4.169706e+03
2.841598e+03,4.158277e+03
2.853168e+03,4.133503e+03
2.864739e+03,4.114174e+03
2.876310e+03,4.108613e+03
2.887881e+03,4.109329e+03
2.899452e+03,4.093966e+03
2.911022e+03,4.061032e+03
2.922593e+03,4.012993e+03
2.934164e+03,4.013455e+03
2.945735e+03,4.012683e+03
2.957306e+03,4.009585e+03
2.968876e+03,3.933344e+03
2.980447e+03,3.909777e+03
2.992018e+03,3.906911e+03
3.003589e+03,3.871867e+03
3.015160e+03,3.861361e+03
3.026730e+03,3.872076e+03
3.038301e+03,3.874752e+03
3.049872e+03,3.846680e+03
3.061443e+03,3.809387e+03
3.073014e+03,3.753390e+03
3.084584e+03,3.817042e+03
3.096155e+03,3.805710e+03
3.107726e+03,3.738539e+03
3.119297e+03,3.702490e+03
3.130868e+03,3.797206e+03
3.142438e+03,3.757879e+03
3.154009e+03,3.710668e+03
3.165580e+03,3.756549e+03
3.177151e+03,3.676264e+03
3.188722e+03,3.688918e+03
3.200292e+03,3.721534e+03
3.211863e+03,0.000000e+00
3.223434e+03,0.000000e+00
3.235005e+03,0.000000e+00
3.246576e+03,0.000000e+00
3.258146e+03,0.000000e+00
3.269717e+03,0.000000e+00
3.281288e+03,0.000000e+00
3.292859e+03,0.000000e+00
3.304430e+03,0.000000e+00
3.316000e+03,0.000000e+00
3.327571e+03,0.000000e+00
3.339142e+03,0.000000e+00
3.350713e+03,0.000000e+00
3.362284e+03,0.000000e+00
3.373854e+03,0.000000e+00
3.385425e+03,0.000000e+00
3.396996e+03,0.000000e+00
3.408567e+03,0.000000e+00
3.420138e+03,0.000000e+00
3.431708e+03,0.000000e+00
3.443279e+03,0.000000e+00
3.454850e+03,0.000000e+00
3.466421e+03,0.000000e+00
3.477992e+03,0.000000e+00
3.489563e+03,0.000000e+00
3.500169e+03,0.000000e+00