File: RAMAN_data/12022024_r2/black fibre10.CSV
9.931763e+01,0.000000e+00
1.108884e+02,0.000000e+00
1.224592e+02,0.000000e+00
1.340300e+02,0.000000e+00
1.456008e+02,0.000000e+00
1.571716e+02,0.000000e+00
1.687424e+02,0.000000e+00
1.803132e+02,0.000000e+00
1.918840e+02,0.000000e+00
2.034548e+02,4.006058e+03
2.150256e+02,4.008374e+03
2.265964e+02,4.038095e+03
2.381673e+02,4.077037e+03
2.497381e+02,4.095750e+03
2.613088e+02,4.128958e+03
2.728796e+02,4.131728e+03
2.844504e+02,4.156774e+03
2.960212e+02,4.178813e+03
3.075920e+02,4.187272e+03
3.191628e+02,4.207196e+03
3.307336e+02,4.216696e+03
3.423044e+02,4.234769e+03
3.538752e+02,4.260111e+03
3.654461e+02,4.262022e+03
3.770169e+02,4.291156e+03
3.885877e+02,4.268636e+03
4.001585e+02,4.291368e+03
4.117293e+02,4.286513e+03
4.233001e+02,4.311107e+03
4.348709e+02,4.311225e+03
4.464417e+02,4.307657e+03
4.580125e+02,4.324694e+03
4.695833e+02,4.307681e+03
4.811541e+02,4.343654e+03
4.927249e+02,4.341417e+03
5.042957e+02,4.331284e+03
5.158665e+02,4.343851e+03
5.274373e+02,4.337237e+03
5.390081e+02,4.319360e+03
5.505789e+02,4.322650e+03
5.621497e+02,4.332430e+03
5.737205e+02,4.321022e+03
5.852913e+02,4.333860e+03
5.968621e+02,4.318332e+03
6.084329e+02,4.330093e+03
6.200037e+02,4.318445e+03
6.315745e+02,4.303776e+03
6.431453e+02,4.296441e+03
6.547161e+02,4.299616e+03
6.662869e+02,4.295420e+03
6.778577e+02,4.288301e+03
6.894285e+02,4.284323e+03
7.009993e+02,4.260925e+03
7.125701e+02,4.263537e+03
7.241409e+02,4.273836e+03
7.357117e+02,4.229538e+03
7.472825e+02,4.242525e+03
7.588533e+02,4.217121e+03
7.704241e+02,4.194861e+03
7.819949e+02,4.230791e+03
7.935657e+02,4.177890e+03
8.051365e+02,4.169703e+03
8.167073e+02,4.164026e+03
8.282781e+02,4.167337e+03
8.398489e+02,4.157654e+03
8.514197e+02,4.141123e+03
8.629905e+02,4.117341e+03
8.745613e+02,4.113219e+03
8.861321e+02,4.126392e+03
8.977029e+02,4.097413e+03
9.092737e+02,4.084793e+03
9.208445e+02,4.040513e+03
9.324153e+02,4.033127e+03
9.439861e+02,4.015544e+03
9.555569e+02,3.993736e+03
9.671277e+02,3.985097e+03
9.786985e+02,3.971112e+03
9.902693e+02,3.957645e+03
1.001840e+03,3.956535e+03
1.013411e+03,3.931104e+03
1.024982e+03,3.930190e+03
1.036552e+03,3.922071e+03
1.048123e+03,3.880850e+03
1.059694e+03,3.886684e+03
1.071265e+03,3.871311e+03
1.082836e+03,3.894746e+03
1.094406e+03,3.872108e+03
1.105977e+03,3.866288e+03
1.117548e+03,3.879730e+03
1.129119e+03,3.856230e+03
1.140690e+03,3.826442e+03
1.152261e+03,3.836129e+03
1.163831e+03,3.795137e+03
1.175402e+03,3.759812e+03
1.186973e+03,3.745438e+03
1.198544e+03,3.738623e+03
1.210115e+03,3.730370e+03
1.221685e+03,3.706461e+03
1.233256e+03,3.687213e+03
1.244827e+03,3.682337e+03
1.256398e+03,3.659392e+03
1.267969e+03,3.653429e+03
1.279539e+03,3.659044e+03
1.291110e+03,3.647098e+03
1.302681e+03,3.620390e+03
1.314252e+03,3.604750e+03
1.325823e+03,3.602662e+03
1.337393e+03,3.606020e+03
1.348964e+03,3.579852e+03
1.360535e+03,3.540342e+03
1.372106e+03,3.546072e+03
1.383677e+03,3.512888e+03
1.395247e+03,3.488147e+03
1.406818e+03,3.458882e+03
1.418389e+03,3.462039e+03
1.429960e+03,3.427648e+03
1.441531e+03,3.412608e+03
1.453101e+03,3.401445e+03
1.464672e+03,3.356462e+03
1.476243e+03,3.368636e+03
1.487814e+03,3.322267e+03
1.499385e+03,3.316923e+03
1.510955e+03,3.298361e+03
1.522526e+03,3.301261e+03
1.534097e+03,3.271775e+03
1.545668e+03,3.242185e+03
1.557239e+03,3.244659e+03
1.568809e+03,3.238024e+03
1.580380e+03,3.239302e+03
1.591951e+03,3.213218e+03
1.603522e+03,3.171848e+03
1.615093e+03,3.155906e+03
1.626663e+03,3.138012e+03
1.638234e+03,3.091676e+03
1.649805e+03,3.052375e+03
1.661376e+03,3.063378e+03
1.672947e+03,3.045067e+03
1.684517e+03,3.030364e+03
1.696088e+03,2.988770e+03
1.707659e+03,2.976031e+03
1.719230e+03,2.956230e+03
1.730801e+03,2.940693e+03
1.742371e+03,2.918184e+03
1.753942e+03,2.881768e+03
1.765513e+03,2.871112e+03
1.777084e+03,2.848049e+03
1.788655e+03,2.849340e+03
1.800225e+03,2.825222e+03
1.811796e+03,2.803594e+03
1.823367e+03,2.777273e+03
1.834938e+03,2.761149e+03
1.846509e+03,2.754663e+03
1.858079e+03,2.716525e+03
1.869650e+03,2.681447e+03
1.881221e+03,2.671302e+03
1.892792e+03,2.647738e+03
1.904363e+03,2.622401e+03
1.915933e+03,2.612457e+03
1.927504e+03,2.580312e+03
1.939075e+03,2.560981e+03
1.950646e+03,2.551184e+03
1.962217e+03,2.532963e+03
1.973787e+03,2.503040e+03
1.985358e+03,2.475828e+03
1.996929e+03,2.469708e+03
2.008500e+03,2.427789e+03
2.020071e+03,2.420749e+03
2.031641e+03,2.398314e+03
2.043212e+03,2.341903e+03
2.054783e+03,2.345740e+03
2.066354e+03,2.316646e+03
2.077925e+03,2.294652e+03
2.089496e+03,2.263645e+03
2.101066e+03,2.244004e+03
2.112637e+03,2.224735e+03
2.124208e+03,2.220754e+03
2.135779e+03,2.183314e+03
2.147350e+03,2.138022e+03
2.158920e+03,2.133046e+03
2.170491e+03,2.106588e+03
2.182062e+03,2.075430e+03
2.193633e+03,2.085250e+03
2.205204e+03,2.075802e+03
2.216774e+03,2.050465e+03
2.228345e+03,2.002631e+03
2.239916e+03,1.984603e+03
2.251487e+03,1.980510e+03
2.263058e+03,1.963969e+03
2.274628e+03,1.924545e+03
2.286199e+03,1.899850e+03
2.297770e+03,1.897091e+03
2.309341e+03,1.883523e+03
2.320912e+03,1.855745e+03
2.332482e+03,1.839281e+03
2.344053e+03,1.828769e+03
2.355624e+03,1.789777e+03
2.367195e+03,1.788883e+03
2.378766e+03,1.756780e+03
2.390336e+03,1.761376e+03
2.401907e+03,1.736932e+03
2.413478e+03,1.708839e+03
2.425049e+03,1.699771e+03
2.436620e+03,1.672472e+03
2.448190e+03,1.665491e+03
2.459761e+03,1.643013e+03
2.471332e+03,1.609969e+03
2.482903e+03,1.611768e+03
2.494474e+03,1.594071e+03
2.506044e+03,1.571983e+03
2.517615e+03,1.581710e+03
2.529186e+03,1.558316e+03
2.540757e+03,1.551257e+03
2.552328e+03,1.513258e+03
2.563898e+03,1.518459e+03
2.575469e+03,1.508025e+03
2.587040e+03,1.484431e+03
2.598611e+03,1.473674e+03
2.610182e+03,1.456766e+03
2.621752e+03,1.442188e+03
2.633323e+03,1.436746e+03
2.644894e+03,1.399684e+03
2.656465e+03,1.414347e+03
2.668036e+03,1.400220e+03
2.679606e+03,1.380619e+03
2.691177e+03,1.395440e+03
2.702748e+03,1.361877e+03
2.714319e+03,1.339225e+03
2.725890e+03,1.333129e+03
2.737460e+03,1.321173e+03
2.749031e+03,1.330381e+03
2.760602e+03,1.295113e+03
2.772173e+03,1.309696e+03
2.783744e+03,1.261663e+03
2.795314e+03,1.282948e+03
2.806885e+03,1.246624e+03
2.818456e+03,1.250768e+03
2.830027e+03,1.232465e+03
2.841598e+03,1.224722e+03
2.853168e+03,1.248387e+03
2.864739e+03,1.218210e+03
2.876310e+03,1.234052e+03
2.887881e+03,1.242486e+03
2.899452e+03,1.226021e+03
2.911022e+03,1.215428e+03
2.922593e+03,1.182096e+03
2.934164e+03,1.164285e+03
2.945735e+03,1.174041e+03
2.957306e+03,1.191082e+03
2.968876e+03,1.160567e+03
2.980447e+03,1.127484e+03
2.992018e+03,1.135849e+03
3.003589e+03,1.085013e+03
3.015160e+03,1.084549e+03
3.026730e+03,1.095978e+03
3.038301e+03,1.079176e+03
3.049872e+03,1.065624e+03
3.061443e+03,1.055461e+03
3.073014e+03,1.057614e+03
3.084584e+03,1.060052e+03
3.096155e+03,1.067138e+03
3.107726e+03,1.052237e+03
3.119297e+03,1.015046e+03
3.130868e+03,1.069594e+03
3.142438e+03,1.063239e+03
3.154009e+03,1.032867e+03
3.165580e+03,1.052674e+03
3.177151e+03,1.037166e+03
3.188722e+03,1.054620e+03
3.200292e+03,1.079812e+03
3.211863e+03,0.000000e+00
3.223434e+03,0.000000e+00
3.235005e+03,0.000000e+00
3.246576e+03,0.000000e+00
3.258146e+03,0.000000e+00
3.269717e+03,0.000000e+00
3.281288e+03,0.000000e+00
3.292859e+03,0.000000e+00
3.304430e+03,0.000000e+00
3.316000e+03,0.000000e+00
3.327571e+03,0.000000e+00
3.339142e+03,0.000000e+00
3.350713e+03,0.000000e+00
3.362284e+03,0.000000e+00
3.373854e+03,0.000000e+00
3.385425e+03,0.000000e+00
3.396996e+03,0.000000e+00
3.408567e+03,0.000000e+00
3.420138e+03,0.000000e+00
3.431708e+03,0.000000e+00
3.443279e+03,0.000000e+00
3.454850e+03,0.000000e+00
3.466421e+03,0.000000e+00
3.477992e+03,0.000000e+00
3.489563e+03,0.000000e+00
3.500169e+03,0.000000e+00