File: RAMAN_data/12022024_r2/black fibre1.CSV
9.931763e+01,0.000000e+00
1.108884e+02,0.000000e+00
1.224592e+02,0.000000e+00
1.340300e+02,0.000000e+00
1.456008e+02,0.000000e+00
1.571716e+02,0.000000e+00
1.687424e+02,0.000000e+00
1.803132e+02,0.000000e+00
1.918840e+02,0.000000e+00
2.034548e+02,9.609816e+02
2.150256e+02,9.464916e+02
2.265964e+02,9.629037e+02
2.381673e+02,9.714459e+02
2.497381e+02,9.762436e+02
2.613088e+02,9.820250e+02
2.728796e+02,9.922880e+02
2.844504e+02,9.990313e+02
2.960212e+02,9.991781e+02
3.075920e+02,1.000909e+03
3.191628e+02,1.017604e+03
3.307336e+02,1.018079e+03
3.423044e+02,1.030681e+03
3.538752e+02,1.018692e+03
3.654461e+02,1.024417e+03
3.770169e+02,1.046415e+03
3.885877e+02,1.024533e+03
4.001585e+02,1.032890e+03
4.117293e+02,1.013349e+03
4.233001e+02,1.020341e+03
4.348709e+02,1.046892e+03
4.464417e+02,1.028785e+03
4.580125e+02,1.032556e+03
4.695833e+02,1.025741e+03
4.811541e+02,1.033801e+03
4.927249e+02,1.047452e+03
5.042957e+02,1.034729e+03
5.158665e+02,1.041669e+03
5.274373e+02,1.018390e+03
5.390081e+02,1.020554e+03
5.505789e+02,1.015571e+03
5.621497e+02,1.024818e+03
5.737205e+02,1.008443e+03
5.852913e+02,1.008035e+03
5.968621e+02,1.009641e+03
6.084329e+02,1.015139e+03
6.200037e+02,1.000326e+03
6.315745e+02,1.008927e+03
6.431453e+02,1.001871e+03
6.547161e+02,1.001290e+03
6.662869e+02,1.005028e+03
6.778577e+02,9.926812e+02
6.894285e+02,9.858741e+02
7.009993e+02,9.914529e+02
7.125701e+02,9.897220e+02
7.241409e+02,9.836377e+02
7.357117e+02,9.763752e+02
7.472825e+02,9.684385e+02
7.588533e+02,9.700954e+02
7.704241e+02,9.601622e+02
7.819949e+02,9.639003e+02
7.935657e+02,9.599556e+02
8.051365e+02,9.477865e+02
8.167073e+02,9.524304e+02
8.282781e+02,9.565818e+02
8.398489e+02,9.409081e+02
8.514197e+02,9.404353e+02
8.629905e+02,9.260155e+02
8.745613e+02,9.350312e+02
8.861321e+02,9.333539e+02
8.977029e+02,9.191035e+02
9.092737e+02,9.243398e+02
9.208445e+02,9.134714e+02
9.324153e+02,9.065011e+02
9.439861e+02,8.975721e+02
9.555569e+02,8.963673e+02
9.671277e+02,8.993073e+02
9.786985e+02,8.797304e+02
9.902693e+02,8.876281e+02
1.001840e+03,8.814047e+02
1.013411e+03,8.793201e+02
1.024982e+03,8.767803e+02
1.036552e+03,8.772286e+02
1.048123e+03,8.776340e+02
1.059694e+03,8.815197e+02
1.071265e+03,8.684838e+02
1.082836e+03,8.780663e+02
1.094406e+03,9.158431e+02
1.105977e+03,8.845560e+02
1.117548e+03,8.993724e+02
1.129119e+03,8.838101e+02
1.140690e+03,8.714841e+02
1.152261e+03,8.793531e+02
1.163831e+03,8.472225e+02
1.175402e+03,8.330775e+02
1.186973e+03,8.304583e+02
1.198544e+03,8.253258e+02
1.210115e+03,8.254447e+02
1.221685e+03,8.083033e+02
1.233256e+03,8.046570e+02
1.244827e+03,8.101270e+02
1.256398e+03,8.072682e+02
1.267969e+03,7.988107e+02
1.279539e+03,8.244404e+02
1.291110e+03,8.157880e+02
1.302681e+03,7.996003e+02
1.314252e+03,7.959100e+02
1.325823e+03,7.923487e+02
1.337393e+03,8.027791e+02
1.348964e+03,8.054304e+02
1.360535e+03,7.912774e+02
1.372106e+03,7.861852e+02
1.383677e+03,7.779583e+02
1.395247e+03,7.556491e+02
1.406818e+03,7.656957e+02
1.418389e+03,7.585281e+02
1.429960e+03,7.558712e+02
1.441531e+03,7.336789e+02
1.453101e+03,7.380763e+02
1.464672e+03,7.237065e+02
1.476243e+03,7.239789e+02
1.487814e+03,7.186016e+02
1.499385e+03,7.082064e+02
1.510955e+03,7.025919e+02
1.522526e+03,6.966326e+02
1.534097e+03,6.926237e+02
1.545668e+03,6.901440e+02
1.557239e+03,6.931885e+02
1.568809e+03,6.989193e+02
1.580380e+03,6.948640e+02
1.591951e+03,6.969337e+02
1.603522e+03,6.672351e+02
1.615093e+03,6.728271e+02
1.626663e+03,6.550925e+02
1.638234e+03,6.604701e+02
1.649805e+03,6.513261e+02
1.661376e+03,6.405901e+02
1.672947e+03,6.388873e+02
1.684517e+03,6.390355e+02
1.696088e+03,6.264061e+02
1.707659e+03,6.355247e+02
1.719230e+03,6.202612e+02
1.730801e+03,6.207988e+02
1.742371e+03,6.182771e+02
1.753942e+03,6.153617e+02
1.765513e+03,6.096427e+02
1.777084e+03,6.064847e+02
1.788655e+03,5.956140e+02
1.800225e+03,5.904330e+02
1.811796e+03,5.890321e+02
1.823367e+03,5.807039e+02
1.834938e+03,5.805449e+02
1.846509e+03,5.805671e+02
1.858079e+03,5.674269e+02
1.869650e+03,5.655761e+02
1.881221e+03,5.553918e+02
1.892792e+03,5.481254e+02
1.904363e+03,5.437347e+02
1.915933e+03,5.472801e+02
1.927504e+03,5.401082e+02
1.939075e+03,5.301014e+02
1.950646e+03,5.278079e+02
1.962217e+03,5.313640e+02
1.973787e+03,5.206996e+02
1.985358e+03,5.132686e+02
1.996929e+03,5.060256e+02
2.008500e+03,5.019547e+02
2.020071e+03,4.913010e+02
2.031641e+03,4.866714e+02
2.043212e+03,4.755744e+02
2.054783e+03,4.785396e+02
2.066354e+03,4.736917e+02
2.077925e+03,4.659345e+02
2.089496e+03,4.717132e+02
2.101066e+03,4.632103e+02
2.112637e+03,4.494786e+02
2.124208e+03,4.576812e+02
2.135779e+03,4.406340e+02
2.147350e+03,4.326133e+02
2.158920e+03,4.291372e+02
2.170491e+03,4.223141e+02
2.182062e+03,4.300876e+02
2.193633e+03,4.180977e+02
2.205204e+03,4.232143e+02
2.216774e+03,4.110482e+02
2.228345e+03,4.068394e+02
2.239916e+03,3.908793e+02
2.251487e+03,3.981372e+02
2.263058e+03,3.896295e+02
2.274628e+03,3.858372e+02
2.286199e+03,3.804097e+02
2.297770e+03,3.794993e+02
2.309341e+03,3.721533e+02
2.320912e+03,3.726298e+02
2.332482e+03,3.663258e+02
2.344053e+03,3.652763e+02
2.355624e+03,3.613363e+02
2.367195e+03,3.528179e+02
2.378766e+03,3.528128e+02
2.390336e+03,3.495367e+02
2.401907e+03,3.457476e+02
2.413478e+03,3.371886e+02
2.425049e+03,3.325461e+02
2.436620e+03,3.309945e+02
2.448190e+03,3.236158e+02
2.459761e+03,3.264898e+02
2.471332e+03,3.243372e+02
2.482903e+03,3.145787e+02
2.494474e+03,3.161408e+02
2.506044e+03,3.211588e+02
2.517615e+03,3.123083e+02
2.529186e+03,3.007663e+02
2.540757e+03,3.035165e+02
2.552328e+03,3.021698e+02
2.563898e+03,3.085034e+02
2.575469e+03,3.089427e+02
2.587040e+03,2.915367e+02
2.598611e+03,2.905965e+02
2.610182e+03,2.871727e+02
2.621752e+03,2.917928e+02
2.633323e+03,2.788531e+02
2.644894e+03,2.829727e+02
2.656465e+03,2.748084e+02
2.668036e+03,2.860445e+02
2.679606e+03,2.700974e+02
2.691177e+03,2.646804e+02
2.702748e+03,2.653964e+02
2.714319e+03,2.681075e+02
2.725890e+03,2.552600e+02
2.737460e+03,2.548931e+02
2.749031e+03,2.733270e+02
2.760602e+03,2.520251e+02
2.772173e+03,2.629218e+02
2.783744e+03,2.528151e+02
2.795314e+03,2.433401e+02
2.806885e+03,2.435905e+02
2.818456e+03,2.518239e+02
2.830027e+03,2.410007e+02
2.841598e+03,2.554941e+02
2.853168e+03,2.757139e+02
2.864739e+03,2.619449e+02
2.876310e+03,2.780341e+02
2.887881e+03,2.932150e+02
2.899452e+03,3.003901e+02
2.911022e+03,2.835380e+02
2.922593e+03,2.666457e+02
2.934164e+03,2.717726e+02
2.945735e+03,2.518238e+02
2.957306e+03,2.772329e+02
2.968876e+03,2.335203e+02
2.980447e+03,2.220261e+02
2.992018e+03,2.299513e+02
3.003589e+03,2.289117e+02
3.015160e+03,2.139802e+02
3.026730e+03,2.146389e+02
3.038301e+03,2.001013e+02
3.049872e+03,2.179653e+02
3.061443e+03,2.105178e+02
3.073014e+03,2.022158e+02
3.084584e+03,2.119158e+02
3.096155e+03,2.135906e+02
3.107726e+03,2.140831e+02
3.119297e+03,2.167371e+02
3.130868e+03,2.351903e+02
3.142438e+03,2.319514e+02
3.154009e+03,2.401110e+02
3.165580e+03,2.198911e+02
3.177151e+03,2.025030e+02
3.188722e+03,1.929233e+02
3.200292e+03,2.585378e+02
3.211863e+03,0.000000e+00
3.223434e+03,0.000000e+00
3.235005e+03,0.000000e+00
3.246576e+03,0.000000e+00
3.258146e+03,0.000000e+00
3.269717e+03,0.000000e+00
3.281288e+03,0.000000e+00
3.292859e+03,0.000000e+00
3.304430e+03,0.000000e+00
3.316000e+03,0.000000e+00
3.327571e+03,0.000000e+00
3.339142e+03,0.000000e+00
3.350713e+03,0.000000e+00
3.362284e+03,0.000000e+00
3.373854e+03,0.000000e+00
3.385425e+03,0.000000e+00
3.396996e+03,0.000000e+00
3.408567e+03,0.000000e+00
3.420138e+03,0.000000e+00
3.431708e+03,0.000000e+00
3.443279e+03,0.000000e+00
3.454850e+03,0.000000e+00
3.466421e+03,0.000000e+00
3.477992e+03,0.000000e+00
3.489563e+03,0.000000e+00
3.500169e+03,0.000000e+00