File: RAMAN_data/12022024_r2/blue fibre1.CSV
9.931763e+01,0.000000e+00
1.108884e+02,0.000000e+00
1.224592e+02,0.000000e+00
1.340300e+02,0.000000e+00
1.456008e+02,0.000000e+00
1.571716e+02,0.000000e+00
1.687424e+02,0.000000e+00
1.803132e+02,0.000000e+00
1.918840e+02,0.000000e+00
2.034548e+02,8.068482e+03
2.150256e+02,8.177094e+03
2.265964e+02,8.294987e+03
2.381673e+02,8.457195e+03
2.497381e+02,8.650623e+03
2.613088e+02,8.715233e+03
2.728796e+02,8.836649e+03
2.844504e+02,8.936666e+03
2.960212e+02,8.997819e+03
3.075920e+02,9.029235e+03
3.191628e+02,9.145536e+03
3.307336e+02,9.227665e+03
3.423044e+02,9.310965e+03
3.538752e+02,9.395801e+03
3.654461e+02,9.483120e+03
3.770169e+02,9.597839e+03
3.885877e+02,9.627995e+03
4.001585e+02,9.650834e+03
4.117293e+02,9.726529e+03
4.233001e+02,9.824428e+03
4.348709e+02,9.889730e+03
4.464417e+02,9.925274e+03
4.580125e+02,9.992526e+03
4.695833e+02,1.001705e+04
4.811541e+02,1.006500e+04
4.927249e+02,1.010878e+04
5.042957e+02,1.018482e+04
5.158665e+02,1.025138e+04
5.274373e+02,1.032225e+04
5.390081e+02,1.046387e+04
5.505789e+02,1.048519e+04
5.621497e+02,1.052330e+04
5.737205e+02,1.040480e+04
5.852913e+02,1.037312e+04
5.968621e+02,1.049942e+04
6.084329e+02,1.052297e+04
6.200037e+02,1.046314e+04
6.315745e+02,1.045538e+04
6.431453e+02,1.045549e+04
6.547161e+02,1.046468e+04
6.662869e+02,1.041573e+04
6.778577e+02,1.040644e+04
6.894285e+02,1.039321e+04
7.009993e+02,1.037941e+04
7.125701e+02,1.038437e+04
7.241409e+02,1.034434e+04
7.357117e+02,1.031605e+04
7.472825e+02,1.034394e+04
7.588533e+02,1.033709e+04
7.704241e+02,1.026633e+04
7.819949e+02,1.025928e+04
7.935657e+02,1.028749e+04
8.051365e+02,1.022900e+04
8.167073e+02,1.015795e+04
8.282781e+02,1.010513e+04
8.398489e+02,1.012569e+04
8.514197e+02,1.007494e+04
8.629905e+02,1.002814e+04
8.745613e+02,9.976418e+03
8.861321e+02,9.935524e+03
8.977029e+02,9.895241e+03
9.092737e+02,9.833212e+03
9.208445e+02,9.737786e+03
9.324153e+02,9.715878e+03
9.439861e+02,9.631438e+03
9.555569e+02,9.594755e+03
9.671277e+02,9.544531e+03
9.786985e+02,9.516021e+03
9.902693e+02,9.436083e+03
1.001840e+03,9.361796e+03
1.013411e+03,9.325799e+03
1.024982e+03,9.276618e+03
1.036552e+03,9.243790e+03
1.048123e+03,9.174361e+03
1.059694e+03,9.124204e+03
1.071265e+03,9.101384e+03
1.082836e+03,9.108418e+03
1.094406e+03,8.987208e+03
1.105977e+03,8.888135e+03
1.117548e+03,8.857979e+03
1.129119e+03,8.751132e+03
1.140690e+03,8.689315e+03
1.152261e+03,8.650978e+03
1.163831e+03,8.597929e+03
1.175402e+03,8.489694e+03
1.186973e+03,8.430534e+03
1.198544e+03,8.416266e+03
1.210115e+03,8.353226e+03
1.221685e+03,8.343439e+03
1.233256e+03,8.231831e+03
1.244827e+03,8.178413e+03
1.256398e+03,8.097982e+03
1.267969e+03,8.021130e+03
1.279539e+03,7.975380e+03
1.291110e+03,7.944573e+03
1.302681e+03,7.893963e+03
1.314252e+03,7.843727e+03
1.325823e+03,7.800199e+03
1.337393e+03,7.777500e+03
1.348964e+03,7.715817e+03
1.360535e+03,7.722328e+03
1.372106e+03,7.630504e+03
1.383677e+03,7.564307e+03
1.395247e+03,7.509573e+03
1.406818e+03,7.444829e+03
1.418389e+03,7.384815e+03
1.429960e+03,7.368333e+03
1.441531e+03,7.286408e+03
1.453101e+03,7.253116e+03
1.464672e+03,7.253478e+03
1.476243e+03,7.135038e+03
1.487814e+03,7.062676e+03
1.499385e+03,6.992542e+03
1.510955e+03,6.981588e+03
1.522526e+03,6.954775e+03
1.534097e+03,6.858481e+03
1.545668e+03,6.814437e+03
1.557239e+03,6.808345e+03
1.568809e+03,7.145375e+03
1.580380e+03,6.972316e+03
1.591951e+03,6.695405e+03
1.603522e+03,6.659104e+03
1.615093e+03,6.581254e+03
1.626663e+03,6.581639e+03
1.638234e+03,6.482602e+03
1.649805e+03,6.451600e+03
1.661376e+03,6.380417e+03
1.672947e+03,6.374045e+03
1.684517e+03,6.318491e+03
1.696088e+03,6.249085e+03
1.707659e+03,6.213561e+03
1.719230e+03,6.160907e+03
1.730801e+03,6.124667e+03
1.742371e+03,6.136416e+03
1.753942e+03,6.082710e+03
1.765513e+03,6.032336e+03
1.777084e+03,5.990256e+03
1.788655e+03,5.965890e+03
1.800225e+03,5.937384e+03
1.811796e+03,5.897431e+03
1.823367e+03,5.832833e+03
1.834938e+03,5.791685e+03
1.846509e+03,5.789522e+03
1.858079e+03,5.714774e+03
1.869650e+03,5.674788e+03
1.881221e+03,5.649708e+03
1.892792e+03,5.580771e+03
1.904363e+03,5.551904e+03
1.915933e+03,5.517497e+03
1.927504e+03,5.479737e+03
1.939075e+03,5.453299e+03
1.950646e+03,5.399052e+03
1.962217e+03,5.386146e+03
1.973787e+03,5.315521e+03
1.985358e+03,5.282998e+03
1.996929e+03,5.234780e+03
2.008500e+03,5.188107e+03
2.020071e+03,5.136071e+03
2.031641e+03,5.090234e+03
2.043212e+03,5.017105e+03
2.054783e+03,4.961756e+03
2.066354e+03,4.942877e+03
2.077925e+03,4.928344e+03
2.089496e+03,4.885107e+03
2.101066e+03,4.817494e+03
2.112637e+03,4.784565e+03
2.124208e+03,4.761627e+03
2.135779e+03,4.700050e+03
2.147350e+03,4.636002e+03
2.158920e+03,4.593411e+03
2.170491e+03,4.583405e+03
2.182062e+03,4.527006e+03
2.193633e+03,4.412814e+03
2.205204e+03,4.428823e+03
2.216774e+03,4.392019e+03
2.228345e+03,4.284485e+03
2.239916e+03,4.276415e+03
2.251487e+03,4.215904e+03
2.263058e+03,4.163498e+03
2.274628e+03,4.076311e+03
2.286199e+03,4.073432e+03
2.297770e+03,4.065242e+03
2.309341e+03,4.003802e+03
2.320912e+03,3.965235e+03
2.332482e+03,3.905094e+03
2.344053e+03,3.902199e+03
2.355624e+03,3.852248e+03
2.367195e+03,3.771001e+03
2.378766e+03,3.784625e+03
2.390336e+03,3.729301e+03
2.401907e+03,3.693586e+03
2.413478e+03,3.602671e+03
2.425049e+03,3.616129e+03
2.436620e+03,3.562800e+03
2.448190e+03,3.535272e+03
2.459761e+03,3.488444e+03
2.471332e+03,3.432987e+03
2.482903e+03,3.398790e+03
2.494474e+03,3.344527e+03
2.506044e+03,3.339408e+03
2.517615e+03,3.327765e+03
2.529186e+03,3.277499e+03
2.540757e+03,3.244183e+03
2.552328e+03,3.199789e+03
2.563898e+03,3.169227e+03
2.575469e+03,3.144503e+03
2.587040e+03,3.106919e+03
2.598611e+03,3.073750e+03
2.610182e+03,3.037687e+03
2.621752e+03,2.996605e+03
2.633323e+03,3.005464e+03
2.644894e+03,2.952210e+03
2.656465e+03,2.908819e+03
2.668036e+03,2.885180e+03
2.679606e+03,2.886294e+03
2.691177e+03,2.842102e+03
2.702748e+03,2.819363e+03
2.714319e+03,2.801870e+03
2.725890e+03,2.757686e+03
2.737460e+03,2.749856e+03
2.749031e+03,2.724012e+03
2.760602e+03,2.681345e+03
2.772173e+03,2.649288e+03
2.783744e+03,2.658877e+03
2.795314e+03,2.612699e+03
2.806885e+03,2.587194e+03
2.818456e+03,2.539757e+03
2.830027e+03,2.571861e+03
2.841598e+03,2.538668e+03
2.853168e+03,2.548006e+03
2.864739e+03,2.514188e+03
2.876310e+03,2.518234e+03
2.887881e+03,2.461949e+03
2.899452e+03,2.480571e+03
2.911022e+03,2.447836e+03
2.922593e+03,2.390361e+03
2.934164e+03,2.396166e+03
2.945735e+03,2.360746e+03
2.957306e+03,2.389733e+03
2.968876e+03,2.347911e+03
2.980447e+03,2.292976e+03
2.992018e+03,2.234357e+03
3.003589e+03,2.281958e+03
3.015160e+03,2.262342e+03
3.026730e+03,2.191194e+03
3.038301e+03,2.233475e+03
3.049872e+03,2.212681e+03
3.061443e+03,2.196794e+03
3.073014e+03,2.184918e+03
3.084584e+03,2.189790e+03
3.096155e+03,2.146241e+03
3.107726e+03,2.138801e+03
3.119297e+03,2.119466e+03
3.130868e+03,2.160640e+03
3.142438e+03,2.101214e+03
3.154009e+03,2.189437e+03
3.165580e+03,2.144131e+03
3.177151e+03,2.112004e+03
3.188722e+03,2.138047e+03
3.200292e+03,2.058010e+03
3.211863e+03,0.000000e+00
3.223434e+03,0.000000e+00
3.235005e+03,0.000000e+00
3.246576e+03,0.000000e+00
3.258146e+03,0.000000e+00
3.269717e+03,0.000000e+00
3.281288e+03,0.000000e+00
3.292859e+03,0.000000e+00
3.304430e+03,0.000000e+00
3.316000e+03,0.000000e+00
3.327571e+03,0.000000e+00
3.339142e+03,0.000000e+00
3.350713e+03,0.000000e+00
3.362284e+03,0.000000e+00
3.373854e+03,0.000000e+00
3.385425e+03,0.000000e+00
3.396996e+03,0.000000e+00
3.408567e+03,0.000000e+00
3.420138e+03,0.000000e+00
3.431708e+03,0.000000e+00
3.443279e+03,0.000000e+00
3.454850e+03,0.000000e+00
3.466421e+03,0.000000e+00
3.477992e+03,0.000000e+00
3.489563e+03,0.000000e+00
3.500169e+03,0.000000e+00