File: RAMAN_data/12022024_r2/blue fibre3.CSV
9.931763e+01,0.000000e+00
1.108884e+02,0.000000e+00
1.224592e+02,0.000000e+00
1.340300e+02,0.000000e+00
1.456008e+02,0.000000e+00
1.571716e+02,0.000000e+00
1.687424e+02,0.000000e+00
1.803132e+02,0.000000e+00
1.918840e+02,0.000000e+00
2.034548e+02,3.123464e+03
2.150256e+02,3.131260e+03
2.265964e+02,3.131470e+03
2.381673e+02,3.152170e+03
2.497381e+02,3.162601e+03
2.613088e+02,3.141292e+03
2.728796e+02,3.166863e+03
2.844504e+02,3.159894e+03
2.960212e+02,3.155743e+03
3.075920e+02,3.170984e+03
3.191628e+02,3.175550e+03
3.307336e+02,3.169120e+03
3.423044e+02,3.165225e+03
3.538752e+02,3.157782e+03
3.654461e+02,3.157875e+03
3.770169e+02,3.185843e+03
3.885877e+02,3.148590e+03
4.001585e+02,3.122717e+03
4.117293e+02,3.127255e+03
4.233001e+02,3.115784e+03
4.348709e+02,3.115570e+03
4.464417e+02,3.088257e+03
4.580125e+02,3.109612e+03
4.695833e+02,3.068571e+03
4.811541e+02,3.062080e+03
4.927249e+02,3.052637e+03
5.042957e+02,3.047782e+03
5.158665e+02,3.052308e+03
5.274373e+02,3.025381e+03
5.390081e+02,3.025845e+03
5.505789e+02,3.005721e+03
5.621497e+02,3.004306e+03
5.737205e+02,2.982257e+03
5.852913e+02,2.977701e+03
5.968621e+02,2.972746e+03
6.084329e+02,2.966208e+03
6.200037e+02,2.927607e+03
6.315745e+02,2.925341e+03
6.431453e+02,2.917055e+03
6.547161e+02,2.898598e+03
6.662869e+02,2.881371e+03
6.778577e+02,2.855250e+03
6.894285e+02,2.843075e+03
7.009993e+02,2.835925e+03
7.125701e+02,2.822949e+03
7.241409e+02,2.807067e+03
7.357117e+02,2.805708e+03
7.472825e+02,2.802457e+03
7.588533e+02,2.777910e+03
7.704241e+02,2.738537e+03
7.819949e+02,2.738269e+03
7.935657e+02,2.730176e+03
8.051365e+02,2.696447e+03
8.167073e+02,2.710313e+03
8.282781e+02,2.668612e+03
8.398489e+02,2.678328e+03
8.514197e+02,2.675947e+03
8.629905e+02,2.652520e+03
8.745613e+02,2.630067e+03
8.861321e+02,2.617934e+03
8.977029e+02,2.609670e+03
9.092737e+02,2.583694e+03
9.208445e+02,2.561383e+03
9.324153e+02,2.546282e+03
9.439861e+02,2.529446e+03
9.555569e+02,2.507495e+03
9.671277e+02,2.501171e+03
9.786985e+02,2.501331e+03
9.902693e+02,2.466928e+03
1.001840e+03,2.445220e+03
1.013411e+03,2.453747e+03
1.024982e+03,2.437398e+03
1.036552e+03,2.426388e+03
1.048123e+03,2.403948e+03
1.059694e+03,2.403358e+03
1.071265e+03,2.387230e+03
1.082836e+03,2.398903e+03
1.094406e+03,2.396601e+03
1.105977e+03,2.380184e+03
1.117548e+03,2.372680e+03
1.129119e+03,2.331803e+03
1.140690e+03,2.306733e+03
1.152261e+03,2.294493e+03
1.163831e+03,2.275420e+03
1.175402e+03,2.259359e+03
1.186973e+03,2.241672e+03
1.198544e+03,2.236161e+03
1.210115e+03,2.227290e+03
1.221685e+03,2.209367e+03
1.233256e+03,2.191825e+03
1.244827e+03,2.173986e+03
1.256398e+03,2.175435e+03
1.267969e+03,2.151894e+03
1.279539e+03,2.146476e+03
1.291110e+03,2.143879e+03
1.302681e+03,2.141921e+03
1.314252e+03,2.122797e+03
1.325823e+03,2.113056e+03
1.337393e+03,2.103393e+03
1.348964e+03,2.091412e+03
1.360535e+03,2.074076e+03
1.372106e+03,2.067580e+03
1.383677e+03,2.067649e+03
1.395247e+03,2.021219e+03
1.406818e+03,2.026863e+03
1.418389e+03,2.003484e+03
1.429960e+03,2.001518e+03
1.441531e+03,1.986080e+03
1.453101e+03,1.958809e+03
1.464672e+03,1.963878e+03
1.476243e+03,1.953955e+03
1.487814e+03,1.939482e+03
1.499385e+03,1.909955e+03
1.510955e+03,1.890553e+03
1.522526e+03,1.893248e+03
1.534097e+03,1.877640e+03
1.545668e+03,1.867581e+03
1.557239e+03,1.853943e+03
1.568809e+03,1.854063e+03
1.580380e+03,1.829545e+03
1.591951e+03,1.822204e+03
1.603522e+03,1.811941e+03
1.615093e+03,1.791628e+03
1.626663e+03,1.777407e+03
1.638234e+03,1.768365e+03
1.649805e+03,1.777902e+03
1.661376e+03,1.732804e+03
1.672947e+03,1.717579e+03
1.684517e+03,1.706133e+03
1.696088e+03,1.689078e+03
1.707659e+03,1.694371e+03
1.719230e+03,1.670708e+03
1.730801e+03,1.662999e+03
1.742371e+03,1.651188e+03
1.753942e+03,1.628814e+03
1.765513e+03,1.609359e+03
1.777084e+03,1.596150e+03
1.788655e+03,1.602284e+03
1.800225e+03,1.589729e+03
1.811796e+03,1.572703e+03
1.823367e+03,1.554661e+03
1.834938e+03,1.539826e+03
1.846509e+03,1.525763e+03
1.858079e+03,1.517798e+03
1.869650e+03,1.514244e+03
1.881221e+03,1.493821e+03
1.892792e+03,1.488657e+03
1.904363e+03,1.470759e+03
1.915933e+03,1.453302e+03
1.927504e+03,1.444098e+03
1.939075e+03,1.440692e+03
1.950646e+03,1.415395e+03
1.962217e+03,1.396362e+03
1.973787e+03,1.398170e+03
1.985358e+03,1.373743e+03
1.996929e+03,1.371288e+03
2.008500e+03,1.352125e+03
2.020071e+03,1.332705e+03
2.031641e+03,1.333137e+03
2.043212e+03,1.309598e+03
2.054783e+03,1.282969e+03
2.066354e+03,1.272462e+03
2.077925e+03,1.259511e+03
2.089496e+03,1.240933e+03
2.101066e+03,1.230545e+03
2.112637e+03,1.213757e+03
2.124208e+03,1.217802e+03
2.135779e+03,1.196594e+03
2.147350e+03,1.181447e+03
2.158920e+03,1.172556e+03
2.170491e+03,1.161811e+03
2.182062e+03,1.140508e+03
2.193633e+03,1.124805e+03
2.205204e+03,1.111890e+03
2.216774e+03,1.108780e+03
2.228345e+03,1.098224e+03
2.239916e+03,1.076997e+03
2.251487e+03,1.074798e+03
2.263058e+03,1.052391e+03
2.274628e+03,1.050900e+03
2.286199e+03,1.036188e+03
2.297770e+03,1.030814e+03
2.309341e+03,1.010387e+03
2.320912e+03,9.963514e+02
2.332482e+03,9.897268e+02
2.344053e+03,9.834972e+02
2.355624e+03,9.599883e+02
2.367195e+03,9.459025e+02
2.378766e+03,9.359786e+02
2.390336e+03,9.170585e+02
2.401907e+03,9.250061e+02
2.413478e+03,8.952191e+02
2.425049e+03,8.899608e+02
2.436620e+03,8.988679e+02
2.448190e+03,8.885359e+02
2.459761e+03,8.623544e+02
2.471332e+03,8.608708e+02
2.482903e+03,8.554360e+02
2.494474e+03,8.336691e+02
2.506044e+03,8.297374e+02
2.517615e+03,8.251902e+02
2.529186e+03,8.048956e+02
2.540757e+03,8.060594e+02
2.552328e+03,8.030627e+02
2.563898e+03,8.081155e+02
2.575469e+03,7.945319e+02
2.587040e+03,7.641583e+02
2.598611e+03,7.560292e+02
2.610182e+03,7.513544e+02
2.621752e+03,7.489921e+02
2.633323e+03,7.375636e+02
2.644894e+03,7.203812e+02
2.656465e+03,7.388924e+02
2.668036e+03,7.483030e+02
2.679606e+03,7.287266e+02
2.691177e+03,7.150447e+02
2.702748e+03,7.145902e+02
2.714319e+03,7.149158e+02
2.725890e+03,6.965949e+02
2.737460e+03,6.848309e+02
2.749031e+03,6.984225e+02
2.760602e+03,6.740732e+02
2.772173e+03,6.735347e+02
2.783744e+03,6.691701e+02
2.795314e+03,6.462593e+02
2.806885e+03,6.462480e+02
2.818456e+03,6.712267e+02
2.830027e+03,6.651600e+02
2.841598e+03,6.595170e+02
2.853168e+03,6.641883e+02
2.864739e+03,6.749699e+02
2.876310e+03,6.908983e+02
2.887881e+03,6.910189e+02
2.899452e+03,6.931330e+02
2.911022e+03,6.853410e+02
2.922593e+03,6.428743e+02
2.934164e+03,6.549744e+02
2.945735e+03,6.438676e+02
2.957306e+03,6.562427e+02
2.968876e+03,6.048078e+02
2.980447e+03,6.026371e+02
2.992018e+03,5.862041e+02
3.003589e+03,5.814940e+02
3.015160e+03,5.618546e+02
3.026730e+03,5.861758e+02
3.038301e+03,5.913319e+02
3.049872e+03,5.590179e+02
3.061443e+03,5.562321e+02
3.073014e+03,5.436874e+02
3.084584e+03,5.499022e+02
3.096155e+03,5.520067e+02
3.107726e+03,5.931920e+02
3.119297e+03,5.762385e+02
3.130868e+03,5.922957e+02
3.142438e+03,5.688094e+02
3.154009e+03,5.866370e+02
3.165580e+03,5.719264e+02
3.177151e+03,5.676210e+02
3.188722e+03,5.066766e+02
3.200292e+03,6.089323e+02
3.211863e+03,0.000000e+00
3.223434e+03,0.000000e+00
3.235005e+03,0.000000e+00
3.246576e+03,0.000000e+00
3.258146e+03,0.000000e+00
3.269717e+03,0.000000e+00
3.281288e+03,0.000000e+00
3.292859e+03,0.000000e+00
3.304430e+03,0.000000e+00
3.316000e+03,0.000000e+00
3.327571e+03,0.000000e+00
3.339142e+03,0.000000e+00
3.350713e+03,0.000000e+00
3.362284e+03,0.000000e+00
3.373854e+03,0.000000e+00
3.385425e+03,0.000000e+00
3.396996e+03,0.000000e+00
3.408567e+03,0.000000e+00
3.420138e+03,0.000000e+00
3.431708e+03,0.000000e+00
3.443279e+03,0.000000e+00
3.454850e+03,0.000000e+00
3.466421e+03,0.000000e+00
3.477992e+03,0.000000e+00
3.489563e+03,0.000000e+00
3.500169e+03,0.000000e+00