File: RAMAN_data/12022024_r2/blue fibre2.CSV
9.931763e+01,0.000000e+00
1.108884e+02,0.000000e+00
1.224592e+02,0.000000e+00
1.340300e+02,0.000000e+00
1.456008e+02,0.000000e+00
1.571716e+02,0.000000e+00
1.687424e+02,0.000000e+00
1.803132e+02,0.000000e+00
1.918840e+02,0.000000e+00
2.034548e+02,1.332216e+03
2.150256e+02,1.336543e+03
2.265964e+02,1.337629e+03
2.381673e+02,1.362162e+03
2.497381e+02,1.376605e+03
2.613088e+02,1.371799e+03
2.728796e+02,1.382834e+03
2.844504e+02,1.382271e+03
2.960212e+02,1.383500e+03
3.075920e+02,1.387843e+03
3.191628e+02,1.388338e+03
3.307336e+02,1.401385e+03
3.423044e+02,1.409965e+03
3.538752e+02,1.413910e+03
3.654461e+02,1.399333e+03
3.770169e+02,1.423600e+03
3.885877e+02,1.402371e+03
4.001585e+02,1.392028e+03
4.117293e+02,1.398028e+03
4.233001e+02,1.399419e+03
4.348709e+02,1.401008e+03
4.464417e+02,1.399727e+03
4.580125e+02,1.398100e+03
4.695833e+02,1.381193e+03
4.811541e+02,1.371178e+03
4.927249e+02,1.372145e+03
5.042957e+02,1.369666e+03
5.158665e+02,1.375244e+03
5.274373e+02,1.358841e+03
5.390081e+02,1.380409e+03
5.505789e+02,1.361436e+03
5.621497e+02,1.360307e+03
5.737205e+02,1.349982e+03
5.852913e+02,1.343957e+03
5.968621e+02,1.344121e+03
6.084329e+02,1.337889e+03
6.200037e+02,1.322750e+03
6.315745e+02,1.323290e+03
6.431453e+02,1.307742e+03
6.547161e+02,1.297603e+03
6.662869e+02,1.298660e+03
6.778577e+02,1.293205e+03
6.894285e+02,1.269522e+03
7.009993e+02,1.264182e+03
7.125701e+02,1.272822e+03
7.241409e+02,1.268167e+03
7.357117e+02,1.257130e+03
7.472825e+02,1.240361e+03
7.588533e+02,1.244512e+03
7.704241e+02,1.220591e+03
7.819949e+02,1.222559e+03
7.935657e+02,1.218546e+03
8.051365e+02,1.195119e+03
8.167073e+02,1.194613e+03
8.282781e+02,1.187591e+03
8.398489e+02,1.179393e+03
8.514197e+02,1.178827e+03
8.629905e+02,1.161367e+03
8.745613e+02,1.157472e+03
8.861321e+02,1.168979e+03
8.977029e+02,1.142194e+03
9.092737e+02,1.141490e+03
9.208445e+02,1.127635e+03
9.324153e+02,1.107046e+03
9.439861e+02,1.102654e+03
9.555569e+02,1.096718e+03
9.671277e+02,1.096549e+03
9.786985e+02,1.080234e+03
9.902693e+02,1.070333e+03
1.001840e+03,1.062396e+03
1.013411e+03,1.059708e+03
1.024982e+03,1.052810e+03
1.036552e+03,1.050685e+03
1.048123e+03,1.046744e+03
1.059694e+03,1.041317e+03
1.071265e+03,1.035453e+03
1.082836e+03,1.050602e+03
1.094406e+03,1.065623e+03
1.105977e+03,1.037278e+03
1.117548e+03,1.041910e+03
1.129119e+03,1.010639e+03
1.140690e+03,9.998420e+02
1.152261e+03,9.917761e+02
1.163831e+03,9.838429e+02
1.175402e+03,9.656747e+02
1.186973e+03,9.556768e+02
1.198544e+03,9.608438e+02
1.210115e+03,9.627027e+02
1.221685e+03,9.550489e+02
1.233256e+03,9.490859e+02
1.244827e+03,9.419537e+02
1.256398e+03,9.455755e+02
1.267969e+03,9.331551e+02
1.279539e+03,9.267597e+02
1.291110e+03,9.289661e+02
1.302681e+03,9.169794e+02
1.314252e+03,9.249554e+02
1.325823e+03,9.199998e+02
1.337393e+03,9.196741e+02
1.348964e+03,9.089620e+02
1.360535e+03,9.006459e+02
1.372106e+03,9.099230e+02
1.383677e+03,9.012548e+02
1.395247e+03,8.796230e+02
1.406818e+03,8.611508e+02
1.418389e+03,8.723943e+02
1.429960e+03,8.611561e+02
1.441531e+03,8.562507e+02
1.453101e+03,8.541604e+02
1.464672e+03,8.535652e+02
1.476243e+03,8.428597e+02
1.487814e+03,8.369354e+02
1.499385e+03,8.307977e+02
1.510955e+03,8.222679e+02
1.522526e+03,8.208244e+02
1.534097e+03,8.134507e+02
1.545668e+03,8.132885e+02
1.557239e+03,8.161586e+02
1.568809e+03,8.569582e+02
1.580380e+03,8.225715e+02
1.591951e+03,8.089324e+02
1.603522e+03,7.936514e+02
1.615093e+03,7.887466e+02
1.626663e+03,7.835039e+02
1.638234e+03,7.721998e+02
1.649805e+03,7.627324e+02
1.661376e+03,7.617206e+02
1.672947e+03,7.557289e+02
1.684517e+03,7.536277e+02
1.696088e+03,7.399083e+02
1.707659e+03,7.399600e+02
1.719230e+03,7.296094e+02
1.730801e+03,7.260460e+02
1.742371e+03,7.174227e+02
1.753942e+03,7.159489e+02
1.765513e+03,6.987868e+02
1.777084e+03,7.019197e+02
1.788655e+03,6.978643e+02
1.800225e+03,6.965090e+02
1.811796e+03,6.860311e+02
1.823367e+03,6.796555e+02
1.834938e+03,6.656367e+02
1.846509e+03,6.646968e+02
1.858079e+03,6.649678e+02
1.869650e+03,6.590150e+02
1.881221e+03,6.623470e+02
1.892792e+03,6.352940e+02
1.904363e+03,6.394880e+02
1.915933e+03,6.363289e+02
1.927504e+03,6.286453e+02
1.939075e+03,6.150139e+02
1.950646e+03,6.164904e+02
1.962217e+03,6.157844e+02
1.973787e+03,6.045760e+02
1.985358e+03,5.955543e+02
1.996929e+03,5.819929e+02
2.008500e+03,5.813378e+02
2.020071e+03,5.805088e+02
2.031641e+03,5.644904e+02
2.043212e+03,5.805198e+02
2.054783e+03,5.653135e+02
2.066354e+03,5.614149e+02
2.077925e+03,5.545502e+02
2.089496e+03,5.505258e+02
2.101066e+03,5.386967e+02
2.112637e+03,5.289490e+02
2.124208e+03,5.354044e+02
2.135779e+03,5.325549e+02
2.147350e+03,5.169469e+02
2.158920e+03,5.147100e+02
2.170491e+03,5.122478e+02
2.182062e+03,4.960064e+02
2.193633e+03,5.042505e+02
2.205204e+03,4.962936e+02
2.216774e+03,4.937371e+02
2.228345e+03,4.764040e+02
2.239916e+03,4.716798e+02
2.251487e+03,4.597310e+02
2.263058e+03,4.611523e+02
2.274628e+03,4.614660e+02
2.286199e+03,4.605761e+02
2.297770e+03,4.546484e+02
2.309341e+03,4.422080e+02
2.320912e+03,4.475941e+02
2.332482e+03,4.416205e+02
2.344053e+03,4.367836e+02
2.355624e+03,4.252003e+02
2.367195e+03,4.184381e+02
2.378766e+03,4.238716e+02
2.390336e+03,4.129394e+02
2.401907e+03,4.048881e+02
2.413478e+03,4.088907e+02
2.425049e+03,4.034073e+02
2.436620e+03,3.952034e+02
2.448190e+03,3.919568e+02
2.459761e+03,3.879567e+02
2.471332e+03,3.918730e+02
2.482903e+03,3.754496e+02
2.494474e+03,3.835652e+02
2.506044e+03,3.719235e+02
2.517615e+03,3.715998e+02
2.529186e+03,3.699411e+02
2.540757e+03,3.681787e+02
2.552328e+03,3.787519e+02
2.563898e+03,3.701272e+02
2.575469e+03,3.671263e+02
2.587040e+03,3.535053e+02
2.598611e+03,3.488978e+02
2.610182e+03,3.410514e+02
2.621752e+03,3.476663e+02
2.633323e+03,3.400828e+02
2.644894e+03,3.404953e+02
2.656465e+03,3.375538e+02
2.668036e+03,3.393354e+02
2.679606e+03,3.314413e+02
2.691177e+03,3.410354e+02
2.702748e+03,3.311668e+02
2.714319e+03,3.288913e+02
2.725890e+03,3.208260e+02
2.737460e+03,3.287687e+02
2.749031e+03,3.172860e+02
2.760602e+03,3.015376e+02
2.772173e+03,3.156496e+02
2.783744e+03,3.109093e+02
2.795314e+03,2.925473e+02
2.806885e+03,3.070567e+02
2.818456e+03,2.980017e+02
2.830027e+03,2.991083e+02
2.841598e+03,3.289544e+02
2.853168e+03,3.255815e+02
2.864739e+03,3.348070e+02
2.876310e+03,3.364427e+02
2.887881e+03,3.422759e+02
2.899452e+03,3.662269e+02
2.911022e+03,3.292654e+02
2.922593e+03,3.253045e+02
2.934164e+03,3.167253e+02
2.945735e+03,3.153312e+02
2.957306e+03,3.603268e+02
2.968876e+03,2.931859e+02
2.980447e+03,2.842755e+02
2.992018e+03,2.909904e+02
3.003589e+03,2.977945e+02
3.015160e+03,2.634187e+02
3.026730e+03,2.773866e+02
3.038301e+03,2.732416e+02
3.049872e+03,2.795793e+02
3.061443e+03,2.678378e+02
3.073014e+03,2.613997e+02
3.084584e+03,2.709031e+02
3.096155e+03,2.830197e+02
3.107726e+03,2.871622e+02
3.119297e+03,2.817621e+02
3.130868e+03,2.689794e+02
3.142438e+03,3.115883e+02
3.154009e+03,3.147416e+02
3.165580e+03,2.884588e+02
3.177151e+03,2.818187e+02
3.188722e+03,2.866956e+02
3.200292e+03,2.995786e+02
3.211863e+03,0.000000e+00
3.223434e+03,0.000000e+00
3.235005e+03,0.000000e+00
3.246576e+03,0.000000e+00
3.258146e+03,0.000000e+00
3.269717e+03,0.000000e+00
3.281288e+03,0.000000e+00
3.292859e+03,0.000000e+00
3.304430e+03,0.000000e+00
3.316000e+03,0.000000e+00
3.327571e+03,0.000000e+00
3.339142e+03,0.000000e+00
3.350713e+03,0.000000e+00
3.362284e+03,0.000000e+00
3.373854e+03,0.000000e+00
3.385425e+03,0.000000e+00
3.396996e+03,0.000000e+00
3.408567e+03,0.000000e+00
3.420138e+03,0.000000e+00
3.431708e+03,0.000000e+00
3.443279e+03,0.000000e+00
3.454850e+03,0.000000e+00
3.466421e+03,0.000000e+00
3.477992e+03,0.000000e+00
3.489563e+03,0.000000e+00
3.500169e+03,0.000000e+00