File: RAMAN_data/12022024_r2/blue fibre7.CSV
9.931763e+01,0.000000e+00
1.108884e+02,0.000000e+00
1.224592e+02,0.000000e+00
1.340300e+02,0.000000e+00
1.456008e+02,0.000000e+00
1.571716e+02,0.000000e+00
1.687424e+02,0.000000e+00
1.803132e+02,0.000000e+00
1.918840e+02,0.000000e+00
2.034548e+02,9.738324e+03
2.150256e+02,9.793754e+03
2.265964e+02,9.891493e+03
2.381673e+02,1.003375e+04
2.497381e+02,1.010033e+04
2.613088e+02,1.017727e+04
2.728796e+02,1.028370e+04
2.844504e+02,1.042920e+04
2.960212e+02,1.051551e+04
3.075920e+02,1.060675e+04
3.191628e+02,1.071286e+04
3.307336e+02,1.079650e+04
3.423044e+02,1.086400e+04
3.538752e+02,1.098529e+04
3.654461e+02,1.103091e+04
3.770169e+02,1.114954e+04
3.885877e+02,1.124039e+04
4.001585e+02,1.126475e+04
4.117293e+02,1.136216e+04
4.233001e+02,1.143759e+04
4.348709e+02,1.152061e+04
4.464417e+02,1.154146e+04
4.580125e+02,1.160092e+04
4.695833e+02,1.163291e+04
4.811541e+02,1.161785e+04
4.927249e+02,1.165470e+04
5.042957e+02,1.166296e+04
5.158665e+02,1.171652e+04
5.274373e+02,1.171739e+04
5.390081e+02,1.168202e+04
5.505789e+02,1.173725e+04
5.621497e+02,1.175537e+04
5.737205e+02,1.173883e+04
5.852913e+02,1.174481e+04
5.968621e+02,1.180592e+04
6.084329e+02,1.179042e+04
6.200037e+02,1.181643e+04
6.315745e+02,1.176725e+04
6.431453e+02,1.171525e+04
6.547161e+02,1.174488e+04
6.662869e+02,1.171227e+04
6.778577e+02,1.168654e+04
6.894285e+02,1.167683e+04
7.009993e+02,1.165007e+04
7.125701e+02,1.164873e+04
7.241409e+02,1.162901e+04
7.357117e+02,1.152453e+04
7.472825e+02,1.154815e+04
7.588533e+02,1.151296e+04
7.704241e+02,1.138767e+04
7.819949e+02,1.143595e+04
7.935657e+02,1.140820e+04
8.051365e+02,1.136906e+04
8.167073e+02,1.129910e+04
8.282781e+02,1.130917e+04
8.398489e+02,1.130466e+04
8.514197e+02,1.126165e+04
8.629905e+02,1.118169e+04
8.745613e+02,1.115714e+04
8.861321e+02,1.116021e+04
8.977029e+02,1.109205e+04
9.092737e+02,1.106253e+04
9.208445e+02,1.098088e+04
9.324153e+02,1.094855e+04
9.439861e+02,1.092510e+04
9.555569e+02,1.086158e+04
9.671277e+02,1.081293e+04
9.786985e+02,1.082403e+04
9.902693e+02,1.072981e+04
1.001840e+03,1.068743e+04
1.013411e+03,1.068367e+04
1.024982e+03,1.065771e+04
1.036552e+03,1.064462e+04
1.048123e+03,1.059508e+04
1.059694e+03,1.056180e+04
1.071265e+03,1.055135e+04
1.082836e+03,1.054821e+04
1.094406e+03,1.047307e+04
1.105977e+03,1.046269e+04
1.117548e+03,1.044840e+04
1.129119e+03,1.041339e+04
1.140690e+03,1.039576e+04
1.152261e+03,1.043977e+04
1.163831e+03,1.035411e+04
1.175402e+03,1.032893e+04
1.186973e+03,1.028887e+04
1.198544e+03,1.030763e+04
1.210115e+03,1.032634e+04
1.221685e+03,1.030050e+04
1.233256e+03,1.026073e+04
1.244827e+03,1.030240e+04
1.256398e+03,1.027983e+04
1.267969e+03,1.024474e+04
1.279539e+03,1.028702e+04
1.291110e+03,1.027353e+04
1.302681e+03,1.029559e+04
1.314252e+03,1.023999e+04
1.325823e+03,1.022820e+04
1.337393e+03,1.030251e+04
1.348964e+03,1.029782e+04
1.360535e+03,1.029328e+04
1.372106e+03,1.039459e+04
1.383677e+03,1.042298e+04
1.395247e+03,1.043694e+04
1.406818e+03,1.033989e+04
1.418389e+03,1.039531e+04
1.429960e+03,1.043362e+04
1.441531e+03,1.040233e+04
1.453101e+03,1.040707e+04
1.464672e+03,1.040403e+04
1.476243e+03,1.044104e+04
1.487814e+03,1.044428e+04
1.499385e+03,1.042792e+04
1.510955e+03,1.047925e+04
1.522526e+03,1.052831e+04
1.534097e+03,1.048458e+04
1.545668e+03,1.047877e+04
1.557239e+03,1.050757e+04
1.568809e+03,1.057381e+04
1.580380e+03,1.055296e+04
1.591951e+03,1.051739e+04
1.603522e+03,1.054334e+04
1.615093e+03,1.056319e+04
1.626663e+03,1.057978e+04
1.638234e+03,1.054968e+04
1.649805e+03,1.051233e+04
1.661376e+03,1.053366e+04
1.672947e+03,1.049469e+04
1.684517e+03,1.051067e+04
1.696088e+03,1.056298e+04
1.707659e+03,1.050603e+04
1.719230e+03,1.050574e+04
1.730801e+03,1.053503e+04
1.742371e+03,1.052174e+04
1.753942e+03,1.047606e+04
1.765513e+03,1.046095e+04
1.777084e+03,1.047464e+04
1.788655e+03,1.043275e+04
1.800225e+03,1.037500e+04
1.811796e+03,1.038812e+04
1.823367e+03,1.039048e+04
1.834938e+03,1.038188e+04
1.846509e+03,1.035184e+04
1.858079e+03,1.031474e+04
1.869650e+03,1.027936e+04
1.881221e+03,1.030146e+04
1.892792e+03,1.023945e+04
1.904363e+03,1.020101e+04
1.915933e+03,1.016733e+04
1.927504e+03,1.021675e+04
1.939075e+03,1.008725e+04
1.950646e+03,1.007242e+04
1.962217e+03,1.005556e+04
1.973787e+03,1.004458e+04
1.985358e+03,9.995415e+03
1.996929e+03,9.986485e+03
2.008500e+03,9.862819e+03
2.020071e+03,9.833824e+03
2.031641e+03,9.832721e+03
2.043212e+03,9.725341e+03
2.054783e+03,9.671442e+03
2.066354e+03,9.722499e+03
2.077925e+03,9.629025e+03
2.089496e+03,9.583434e+03
2.101066e+03,9.529552e+03
2.112637e+03,9.456941e+03
2.124208e+03,9.467306e+03
2.135779e+03,9.370359e+03
2.147350e+03,9.272844e+03
2.158920e+03,9.311937e+03
2.170491e+03,9.273706e+03
2.182062e+03,9.170679e+03
2.193633e+03,9.119812e+03
2.205204e+03,9.139100e+03
2.216774e+03,9.049624e+03
2.228345e+03,8.901843e+03
2.239916e+03,8.903332e+03
2.251487e+03,8.883529e+03
2.263058e+03,8.847281e+03
2.274628e+03,8.701269e+03
2.286199e+03,8.655920e+03
2.297770e+03,8.703188e+03
2.309341e+03,8.593228e+03
2.320912e+03,8.569456e+03
2.332482e+03,8.518007e+03
2.344053e+03,8.473622e+03
2.355624e+03,8.419087e+03
2.367195e+03,8.308319e+03
2.378766e+03,8.308463e+03
2.390336e+03,8.216524e+03
2.401907e+03,8.183269e+03
2.413478e+03,8.115112e+03
2.425049e+03,8.096741e+03
2.436620e+03,8.042407e+03
2.448190e+03,7.943034e+03
2.459761e+03,7.872292e+03
2.471332e+03,7.851561e+03
2.482903e+03,7.838893e+03
2.494474e+03,7.770993e+03
2.506044e+03,7.688929e+03
2.517615e+03,7.688607e+03
2.529186e+03,7.635608e+03
2.540757e+03,7.500642e+03
2.552328e+03,7.561264e+03
2.563898e+03,7.436709e+03
2.575469e+03,7.414028e+03
2.587040e+03,7.348010e+03
2.598611e+03,7.309314e+03
2.610182e+03,7.240678e+03
2.621752e+03,7.221727e+03
2.633323e+03,7.161628e+03
2.644894e+03,7.155920e+03
2.656465e+03,7.089013e+03
2.668036e+03,7.019461e+03
2.679606e+03,6.959821e+03
2.691177e+03,6.955864e+03
2.702748e+03,6.907231e+03
2.714319e+03,6.793127e+03
2.725890e+03,6.738857e+03
2.737460e+03,6.719464e+03
2.749031e+03,6.671080e+03
2.760602e+03,6.594793e+03
2.772173e+03,6.563732e+03
2.783744e+03,6.487155e+03
2.795314e+03,6.451841e+03
2.806885e+03,6.409916e+03
2.818456e+03,6.336078e+03
2.830027e+03,6.347397e+03
2.841598e+03,6.270343e+03
2.853168e+03,6.269641e+03
2.864739e+03,6.161172e+03
2.876310e+03,6.130038e+03
2.887881e+03,6.144881e+03
2.899452e+03,6.102889e+03
2.911022e+03,5.998464e+03
2.922593e+03,5.996887e+03
2.934164e+03,5.923444e+03
2.945735e+03,5.926206e+03
2.957306e+03,5.888369e+03
2.968876e+03,5.808750e+03
2.980447e+03,5.778604e+03
2.992018e+03,5.708732e+03
3.003589e+03,5.703276e+03
3.015160e+03,5.650027e+03
3.026730e+03,5.667742e+03
3.038301e+03,5.589609e+03
3.049872e+03,5.518024e+03
3.061443e+03,5.612544e+03
3.073014e+03,5.506983e+03
3.084584e+03,5.507453e+03
3.096155e+03,5.483823e+03
3.107726e+03,5.463909e+03
3.119297e+03,5.374734e+03
3.130868e+03,5.449044e+03
3.142438e+03,5.366470e+03
3.154009e+03,5.386826e+03
3.165580e+03,5.282177e+03
3.177151e+03,5.343391e+03
3.188722e+03,5.323439e+03
3.200292e+03,5.327438e+03
3.211863e+03,0.000000e+00
3.223434e+03,0.000000e+00
3.235005e+03,0.000000e+00
3.246576e+03,0.000000e+00
3.258146e+03,0.000000e+00
3.269717e+03,0.000000e+00
3.281288e+03,0.000000e+00
3.292859e+03,0.000000e+00
3.304430e+03,0.000000e+00
3.316000e+03,0.000000e+00
3.327571e+03,0.000000e+00
3.339142e+03,0.000000e+00
3.350713e+03,0.000000e+00
3.362284e+03,0.000000e+00
3.373854e+03,0.000000e+00
3.385425e+03,0.000000e+00
3.396996e+03,0.000000e+00
3.408567e+03,0.000000e+00
3.420138e+03,0.000000e+00
3.431708e+03,0.000000e+00
3.443279e+03,0.000000e+00
3.454850e+03,0.000000e+00
3.466421e+03,0.000000e+00
3.477992e+03,0.000000e+00
3.489563e+03,0.000000e+00
3.500169e+03,0.000000e+00