File: RAMAN_data/12022024_r2/blue frag2.CSV
9.931763e+01,0.000000e+00
1.108884e+02,0.000000e+00
1.224592e+02,0.000000e+00
1.340300e+02,0.000000e+00
1.456008e+02,0.000000e+00
1.571716e+02,0.000000e+00
1.687424e+02,0.000000e+00
1.803132e+02,0.000000e+00
1.918840e+02,0.000000e+00
2.034548e+02,1.051899e+04
2.150256e+02,1.057905e+04
2.265964e+02,1.068651e+04
2.381673e+02,1.083713e+04
2.497381e+02,1.092278e+04
2.613088e+02,1.101875e+04
2.728796e+02,1.114345e+04
2.844504e+02,1.128443e+04
2.960212e+02,1.138987e+04
3.075920e+02,1.148845e+04
3.191628e+02,1.160775e+04
3.307336e+02,1.175910e+04
3.423044e+02,1.188976e+04
3.538752e+02,1.203829e+04
3.654461e+02,1.215099e+04
3.770169e+02,1.231110e+04
3.885877e+02,1.246675e+04
4.001585e+02,1.259455e+04
4.117293e+02,1.274362e+04
4.233001e+02,1.288550e+04
4.348709e+02,1.304495e+04
4.464417e+02,1.321596e+04
4.580125e+02,1.333318e+04
4.695833e+02,1.347341e+04
4.811541e+02,1.360224e+04
4.927249e+02,1.374474e+04
5.042957e+02,1.387491e+04
5.158665e+02,1.399692e+04
5.274373e+02,1.410203e+04
5.390081e+02,1.416972e+04
5.505789e+02,1.428556e+04
5.621497e+02,1.439837e+04
5.737205e+02,1.446632e+04
5.852913e+02,1.457575e+04
5.968621e+02,1.471280e+04
6.084329e+02,1.480358e+04
6.200037e+02,1.484330e+04
6.315745e+02,1.490827e+04
6.431453e+02,1.500741e+04
6.547161e+02,1.510578e+04
6.662869e+02,1.514584e+04
6.778577e+02,1.514799e+04
6.894285e+02,1.519395e+04
7.009993e+02,1.524655e+04
7.125701e+02,1.527353e+04
7.241409e+02,1.524614e+04
7.357117e+02,1.522256e+04
7.472825e+02,1.526538e+04
7.588533e+02,1.522462e+04
7.704241e+02,1.514939e+04
7.819949e+02,1.512312e+04
7.935657e+02,1.513327e+04
8.051365e+02,1.507364e+04
8.167073e+02,1.502362e+04
8.282781e+02,1.500753e+04
8.398489e+02,1.495887e+04
8.514197e+02,1.483602e+04
8.629905e+02,1.478478e+04
8.745613e+02,1.470254e+04
8.861321e+02,1.467136e+04
8.977029e+02,1.454933e+04
9.092737e+02,1.445538e+04
9.208445e+02,1.435555e+04
9.324153e+02,1.430228e+04
9.439861e+02,1.419758e+04
9.555569e+02,1.405309e+04
9.671277e+02,1.394241e+04
9.786985e+02,1.383075e+04
9.902693e+02,1.367490e+04
1.001840e+03,1.353509e+04
1.013411e+03,1.346450e+04
1.024982e+03,1.337917e+04
1.036552e+03,1.323313e+04
1.048123e+03,1.311727e+04
1.059694e+03,1.305441e+04
1.071265e+03,1.300379e+04
1.082836e+03,1.290117e+04
1.094406e+03,1.274686e+04
1.105977e+03,1.268010e+04
1.117548e+03,1.262516e+04
1.129119e+03,1.251101e+04
1.140690e+03,1.242159e+04
1.152261e+03,1.239111e+04
1.163831e+03,1.232199e+04
1.175402e+03,1.221769e+04
1.186973e+03,1.215562e+04
1.198544e+03,1.215958e+04
1.210115e+03,1.211081e+04
1.221685e+03,1.206943e+04
1.233256e+03,1.204628e+04
1.244827e+03,1.207817e+04
1.256398e+03,1.208695e+04
1.267969e+03,1.206690e+04
1.279539e+03,1.209122e+04
1.291110e+03,1.213679e+04
1.302681e+03,1.218424e+04
1.314252e+03,1.220847e+04
1.325823e+03,1.225572e+04
1.337393e+03,1.235253e+04
1.348964e+03,1.241235e+04
1.360535e+03,1.244042e+04
1.372106e+03,1.250207e+04
1.383677e+03,1.255748e+04
1.395247e+03,1.262176e+04
1.406818e+03,1.258416e+04
1.418389e+03,1.261549e+04
1.429960e+03,1.263461e+04
1.441531e+03,1.263899e+04
1.453101e+03,1.263896e+04
1.464672e+03,1.261393e+04
1.476243e+03,1.258728e+04
1.487814e+03,1.248048e+04
1.499385e+03,1.238631e+04
1.510955e+03,1.235329e+04
1.522526e+03,1.230391e+04
1.534097e+03,1.224781e+04
1.545668e+03,1.208918e+04
1.557239e+03,1.211312e+04
1.568809e+03,1.203530e+04
1.580380e+03,1.193440e+04
1.591951e+03,1.185830e+04
1.603522e+03,1.181168e+04
1.615093e+03,1.174613e+04
1.626663e+03,1.164050e+04
1.638234e+03,1.154066e+04
1.649805e+03,1.148854e+04
1.661376e+03,1.140154e+04
1.672947e+03,1.135158e+04
1.684517e+03,1.127273e+04
1.696088e+03,1.117474e+04
1.707659e+03,1.116273e+04
1.719230e+03,1.101575e+04
1.730801e+03,1.096796e+04
1.742371e+03,1.090298e+04
1.753942e+03,1.080089e+04
1.765513e+03,1.072677e+04
1.777084e+03,1.061540e+04
1.788655e+03,1.059519e+04
1.800225e+03,1.054892e+04
1.811796e+03,1.043575e+04
1.823367e+03,1.038530e+04
1.834938e+03,1.031997e+04
1.846509e+03,1.023025e+04
1.858079e+03,1.014015e+04
1.869650e+03,1.005603e+04
1.881221e+03,9.993853e+03
1.892792e+03,9.909248e+03
1.904363e+03,9.803037e+03
1.915933e+03,9.723346e+03
1.927504e+03,9.636604e+03
1.939075e+03,9.602658e+03
1.950646e+03,9.513925e+03
1.962217e+03,9.439613e+03
1.973787e+03,9.411921e+03
1.985358e+03,9.341109e+03
1.996929e+03,9.197174e+03
2.008500e+03,9.164779e+03
2.020071e+03,9.070576e+03
2.031641e+03,9.043396e+03
2.043212e+03,8.933265e+03
2.054783e+03,8.858698e+03
2.066354e+03,8.791613e+03
2.077925e+03,8.720496e+03
2.089496e+03,8.649593e+03
2.101066e+03,8.555615e+03
2.112637e+03,8.454482e+03
2.124208e+03,8.448470e+03
2.135779e+03,8.349458e+03
2.147350e+03,8.250020e+03
2.158920e+03,8.188849e+03
2.170491e+03,8.163049e+03
2.182062e+03,8.023547e+03
2.193633e+03,7.997106e+03
2.205204e+03,7.946430e+03
2.216774e+03,7.876241e+03
2.228345e+03,7.716423e+03
2.239916e+03,7.723904e+03
2.251487e+03,7.652384e+03
2.263058e+03,7.552172e+03
2.274628e+03,7.481164e+03
2.286199e+03,7.325058e+03
2.297770e+03,7.345153e+03
2.309341e+03,7.278297e+03
2.320912e+03,7.206833e+03
2.332482e+03,7.159813e+03
2.344053e+03,7.121232e+03
2.355624e+03,7.072985e+03
2.367195e+03,7.007384e+03
2.378766e+03,6.898884e+03
2.390336e+03,6.863373e+03
2.401907e+03,6.765897e+03
2.413478e+03,6.707170e+03
2.425049e+03,6.669712e+03
2.436620e+03,6.611114e+03
2.448190e+03,6.554326e+03
2.459761e+03,6.493624e+03
2.471332e+03,6.445700e+03
2.482903e+03,6.425760e+03
2.494474e+03,6.317946e+03
2.506044e+03,6.336240e+03
2.517615e+03,6.254954e+03
2.529186e+03,6.180143e+03
2.540757e+03,6.112003e+03
2.552328e+03,6.066091e+03
2.563898e+03,6.050071e+03
2.575469e+03,5.973899e+03
2.587040e+03,5.950333e+03
2.598611e+03,5.890464e+03
2.610182e+03,5.860764e+03
2.621752e+03,5.761522e+03
2.633323e+03,5.715222e+03
2.644894e+03,5.664477e+03
2.656465e+03,5.682042e+03
2.668036e+03,5.586782e+03
2.679606e+03,5.555708e+03
2.691177e+03,5.489196e+03
2.702748e+03,5.444102e+03
2.714319e+03,5.412511e+03
2.725890e+03,5.336241e+03
2.737460e+03,5.287836e+03
2.749031e+03,5.245210e+03
2.760602e+03,5.187570e+03
2.772173e+03,5.171092e+03
2.783744e+03,5.140630e+03
2.795314e+03,5.048089e+03
2.806885e+03,5.095906e+03
2.818456e+03,5.039046e+03
2.830027e+03,4.988579e+03
2.841598e+03,4.897669e+03
2.853168e+03,4.877277e+03
2.864739e+03,4.816648e+03
2.876310e+03,4.827303e+03
2.887881e+03,4.782032e+03
2.899452e+03,4.761854e+03
2.911022e+03,4.727550e+03
2.922593e+03,4.659492e+03
2.934164e+03,4.661153e+03
2.945735e+03,4.570427e+03
2.957306e+03,4.574695e+03
2.968876e+03,4.555599e+03
2.980447e+03,4.470259e+03
2.992018e+03,4.473275e+03
3.003589e+03,4.427428e+03
3.015160e+03,4.374484e+03
3.026730e+03,4.352536e+03
3.038301e+03,4.358800e+03
3.049872e+03,4.321222e+03
3.061443e+03,4.343737e+03
3.073014e+03,4.312830e+03
3.084584e+03,4.221593e+03
3.096155e+03,4.352627e+03
3.107726e+03,4.122132e+03
3.119297e+03,4.233483e+03
3.130868e+03,4.175947e+03
3.142438e+03,4.124372e+03
3.154009e+03,4.164020e+03
3.165580e+03,4.147339e+03
3.177151e+03,4.104132e+03
3.188722e+03,4.058296e+03
3.200292e+03,4.056110e+03
3.211863e+03,0.000000e+00
3.223434e+03,0.000000e+00
3.235005e+03,0.000000e+00
3.246576e+03,0.000000e+00
3.258146e+03,0.000000e+00
3.269717e+03,0.000000e+00
3.281288e+03,0.000000e+00
3.292859e+03,0.000000e+00
3.304430e+03,0.000000e+00
3.316000e+03,0.000000e+00
3.327571e+03,0.000000e+00
3.339142e+03,0.000000e+00
3.350713e+03,0.000000e+00
3.362284e+03,0.000000e+00
3.373854e+03,0.000000e+00
3.385425e+03,0.000000e+00
3.396996e+03,0.000000e+00
3.408567e+03,0.000000e+00
3.420138e+03,0.000000e+00
3.431708e+03,0.000000e+00
3.443279e+03,0.000000e+00
3.454850e+03,0.000000e+00
3.466421e+03,0.000000e+00
3.477992e+03,0.000000e+00
3.489563e+03,0.000000e+00
3.500169e+03,0.000000e+00