File: RAMAN_data/12022024_r2/blue frag1.CSV
9.931763e+01,0.000000e+00
1.108884e+02,0.000000e+00
1.224592e+02,0.000000e+00
1.340300e+02,0.000000e+00
1.456008e+02,0.000000e+00
1.571716e+02,0.000000e+00
1.687424e+02,0.000000e+00
1.803132e+02,0.000000e+00
1.918840e+02,0.000000e+00
2.034548e+02,2.290293e+03
2.150256e+02,2.278257e+03
2.265964e+02,2.277187e+03
2.381673e+02,2.272539e+03
2.497381e+02,2.292510e+03
2.613088e+02,2.354102e+03
2.728796e+02,2.272276e+03
2.844504e+02,2.288314e+03
2.960212e+02,2.257934e+03
3.075920e+02,2.258600e+03
3.191628e+02,2.271270e+03
3.307336e+02,2.280722e+03
3.423044e+02,2.283728e+03
3.538752e+02,2.273846e+03
3.654461e+02,2.268478e+03
3.770169e+02,2.289613e+03
3.885877e+02,2.286341e+03
4.001585e+02,2.273790e+03
4.117293e+02,2.268983e+03
4.233001e+02,2.298707e+03
4.348709e+02,2.279392e+03
4.464417e+02,2.275890e+03
4.580125e+02,2.279046e+03
4.695833e+02,2.279091e+03
4.811541e+02,2.534694e+03
4.927249e+02,2.330732e+03
5.042957e+02,2.316313e+03
5.158665e+02,2.329009e+03
5.274373e+02,2.319665e+03
5.390081e+02,2.329947e+03
5.505789e+02,2.349982e+03
5.621497e+02,2.373220e+03
5.737205e+02,2.373458e+03
5.852913e+02,2.421779e+03
5.968621e+02,2.443166e+03
6.084329e+02,2.421239e+03
6.200037e+02,2.412027e+03
6.315745e+02,2.442640e+03
6.431453e+02,2.459580e+03
6.547161e+02,2.472527e+03
6.662869e+02,2.490403e+03
6.778577e+02,3.052831e+03
6.894285e+02,2.565196e+03
7.009993e+02,2.592489e+03
7.125701e+02,2.555433e+03
7.241409e+02,2.567872e+03
7.357117e+02,2.583707e+03
7.472825e+02,3.189429e+03
7.588533e+02,2.609462e+03
7.704241e+02,2.646092e+03
7.819949e+02,2.700265e+03
7.935657e+02,2.637813e+03
8.051365e+02,2.660928e+03
8.167073e+02,2.664665e+03
8.282781e+02,2.739354e+03
8.398489e+02,2.747552e+03
8.514197e+02,2.776496e+03
8.629905e+02,2.756492e+03
8.745613e+02,2.761477e+03
8.861321e+02,2.791359e+03
8.977029e+02,2.757028e+03
9.092737e+02,2.791496e+03
9.208445e+02,2.782807e+03
9.324153e+02,2.821840e+03
9.439861e+02,2.812211e+03
9.555569e+02,2.910020e+03
9.671277e+02,2.823077e+03
9.786985e+02,2.824233e+03
9.902693e+02,2.815314e+03
1.001840e+03,2.845756e+03
1.013411e+03,2.838133e+03
1.024982e+03,2.836187e+03
1.036552e+03,2.833283e+03
1.048123e+03,2.820007e+03
1.059694e+03,2.806498e+03
1.071265e+03,2.790760e+03
1.082836e+03,2.800971e+03
1.094406e+03,2.785261e+03
1.105977e+03,2.889502e+03
1.117548e+03,2.756368e+03
1.129119e+03,2.761011e+03
1.140690e+03,3.010817e+03
1.152261e+03,2.719561e+03
1.163831e+03,2.662869e+03
1.175402e+03,2.620157e+03
1.186973e+03,2.672966e+03
1.198544e+03,2.648152e+03
1.210115e+03,2.647698e+03
1.221685e+03,2.567483e+03
1.233256e+03,2.472623e+03
1.244827e+03,2.433379e+03
1.256398e+03,2.394362e+03
1.267969e+03,2.365841e+03
1.279539e+03,2.318343e+03
1.291110e+03,2.305537e+03
1.302681e+03,2.395922e+03
1.314252e+03,2.286697e+03
1.325823e+03,2.283277e+03
1.337393e+03,2.830346e+03
1.348964e+03,2.213784e+03
1.360535e+03,2.113091e+03
1.372106e+03,2.106639e+03
1.383677e+03,2.029754e+03
1.395247e+03,1.993033e+03
1.406818e+03,1.957806e+03
1.418389e+03,1.921507e+03
1.429960e+03,1.919270e+03
1.441531e+03,1.906510e+03
1.453101e+03,2.028152e+03
1.464672e+03,1.804510e+03
1.476243e+03,1.778056e+03
1.487814e+03,1.740694e+03
1.499385e+03,1.707668e+03
1.510955e+03,1.690984e+03
1.522526e+03,2.227178e+03
1.534097e+03,1.991329e+03
1.545668e+03,1.635152e+03
1.557239e+03,1.576887e+03
1.568809e+03,1.534207e+03
1.580380e+03,1.523660e+03
1.591951e+03,1.513420e+03
1.603522e+03,1.493470e+03
1.615093e+03,1.451822e+03
1.626663e+03,1.430686e+03
1.638234e+03,1.385712e+03
1.649805e+03,1.363161e+03
1.661376e+03,1.336536e+03
1.672947e+03,1.315999e+03
1.684517e+03,1.298919e+03
1.696088e+03,1.279646e+03
1.707659e+03,1.261447e+03
1.719230e+03,1.238131e+03
1.730801e+03,1.223145e+03
1.742371e+03,1.203639e+03
1.753942e+03,1.184006e+03
1.765513e+03,1.166961e+03
1.777084e+03,1.148347e+03
1.788655e+03,1.134383e+03
1.800225e+03,1.121264e+03
1.811796e+03,1.105991e+03
1.823367e+03,1.087028e+03
1.834938e+03,1.081742e+03
1.846509e+03,1.060399e+03
1.858079e+03,1.049606e+03
1.869650e+03,1.032999e+03
1.881221e+03,1.016055e+03
1.892792e+03,1.006584e+03
1.904363e+03,9.905354e+02
1.915933e+03,9.966639e+02
1.927504e+03,9.669084e+02
1.939075e+03,9.592738e+02
1.950646e+03,9.496178e+02
1.962217e+03,9.249899e+02
1.973787e+03,9.114818e+02
1.985358e+03,9.024454e+02
1.996929e+03,8.857608e+02
2.008500e+03,8.800228e+02
2.020071e+03,8.652624e+02
2.031641e+03,8.743854e+02
2.043212e+03,8.507057e+02
2.054783e+03,8.467283e+02
2.066354e+03,8.346736e+02
2.077925e+03,8.115922e+02
2.089496e+03,8.075292e+02
2.101066e+03,7.975613e+02
2.112637e+03,7.847587e+02
2.124208e+03,7.687740e+02
2.135779e+03,7.668775e+02
2.147350e+03,7.539484e+02
2.158920e+03,7.505076e+02
2.170491e+03,7.385775e+02
2.182062e+03,7.309397e+02
2.193633e+03,7.206087e+02
2.205204e+03,7.320004e+02
2.216774e+03,7.183160e+02
2.228345e+03,6.913211e+02
2.239916e+03,6.954006e+02
2.251487e+03,6.844213e+02
2.263058e+03,6.758897e+02
2.274628e+03,6.810016e+02
2.286199e+03,6.608508e+02
2.297770e+03,6.416749e+02
2.309341e+03,6.448519e+02
2.320912e+03,6.430811e+02
2.332482e+03,6.342958e+02
2.344053e+03,6.204601e+02
2.355624e+03,6.173557e+02
2.367195e+03,6.049579e+02
2.378766e+03,6.036830e+02
2.390336e+03,5.977237e+02
2.401907e+03,5.832674e+02
2.413478e+03,5.735771e+02
2.425049e+03,5.720892e+02
2.436620e+03,5.687356e+02
2.448190e+03,5.543467e+02
2.459761e+03,5.515717e+02
2.471332e+03,5.413729e+02
2.482903e+03,5.359321e+02
2.494474e+03,5.227032e+02
2.506044e+03,5.286860e+02
2.517615e+03,5.199793e+02
2.529186e+03,5.116777e+02
2.540757e+03,5.017715e+02
2.552328e+03,5.024997e+02
2.563898e+03,4.888620e+02
2.575469e+03,4.900909e+02
2.587040e+03,4.736830e+02
2.598611e+03,4.733627e+02
2.610182e+03,4.833534e+02
2.621752e+03,4.611043e+02
2.633323e+03,4.515245e+02
2.644894e+03,4.539679e+02
2.656465e+03,4.517982e+02
2.668036e+03,4.458820e+02
2.679606e+03,4.453166e+02
2.691177e+03,4.352003e+02
2.702748e+03,4.292845e+02
2.714319e+03,4.351241e+02
2.725890e+03,4.187828e+02
2.737460e+03,4.163082e+02
2.749031e+03,4.119550e+02
2.760602e+03,4.105599e+02
2.772173e+03,4.010590e+02
2.783744e+03,4.169778e+02
2.795314e+03,4.099249e+02
2.806885e+03,3.957293e+02
2.818456e+03,3.938618e+02
2.830027e+03,3.892719e+02
2.841598e+03,3.934456e+02
2.853168e+03,3.946789e+02
2.864739e+03,4.131495e+02
2.876310e+03,4.019610e+02
2.887881e+03,4.227529e+02
2.899452e+03,4.260217e+02
2.911022e+03,4.373575e+02
2.922593e+03,4.001258e+02
2.934164e+03,4.157557e+02
2.945735e+03,4.197119e+02
2.957306e+03,4.527849e+02
2.968876e+03,3.910587e+02
2.980447e+03,3.902958e+02
2.992018e+03,3.937741e+02
3.003589e+03,3.956818e+02
3.015160e+03,3.802891e+02
3.026730e+03,4.001597e+02
3.038301e+03,4.048365e+02
3.049872e+03,4.128942e+02
3.061443e+03,4.235188e+02
3.073014e+03,4.076859e+02
3.084584e+03,4.247423e+02
3.096155e+03,4.101749e+02
3.107726e+03,3.981180e+02
3.119297e+03,4.405853e+02
3.130868e+03,4.344883e+02
3.142438e+03,4.261576e+02
3.154009e+03,4.604730e+02
3.165580e+03,4.379351e+02
3.177151e+03,4.488015e+02
3.188722e+03,4.597920e+02
3.200292e+03,4.887061e+02
3.211863e+03,0.000000e+00
3.223434e+03,0.000000e+00
3.235005e+03,0.000000e+00
3.246576e+03,0.000000e+00
3.258146e+03,0.000000e+00
3.269717e+03,0.000000e+00
3.281288e+03,0.000000e+00
3.292859e+03,0.000000e+00
3.304430e+03,0.000000e+00
3.316000e+03,0.000000e+00
3.327571e+03,0.000000e+00
3.339142e+03,0.000000e+00
3.350713e+03,0.000000e+00
3.362284e+03,0.000000e+00
3.373854e+03,0.000000e+00
3.385425e+03,0.000000e+00
3.396996e+03,0.000000e+00
3.408567e+03,0.000000e+00
3.420138e+03,0.000000e+00
3.431708e+03,0.000000e+00
3.443279e+03,0.000000e+00
3.454850e+03,0.000000e+00
3.466421e+03,0.000000e+00
3.477992e+03,0.000000e+00
3.489563e+03,0.000000e+00
3.500169e+03,0.000000e+00