File: RAMAN_data/12022024_r2/red fibre.CSV
9.931763e+01,0.000000e+00
1.108884e+02,0.000000e+00
1.224592e+02,0.000000e+00
1.340300e+02,0.000000e+00
1.456008e+02,0.000000e+00
1.571716e+02,0.000000e+00
1.687424e+02,0.000000e+00
1.803132e+02,0.000000e+00
1.918840e+02,0.000000e+00
2.034548e+02,3.077148e+03
2.150256e+02,3.080418e+03
2.265964e+02,3.089984e+03
2.381673e+02,3.122413e+03
2.497381e+02,3.133892e+03
2.613088e+02,3.132078e+03
2.728796e+02,3.158036e+03
2.844504e+02,3.188582e+03
2.960212e+02,3.185233e+03
3.075920e+02,3.206941e+03
3.191628e+02,3.208566e+03
3.307336e+02,3.220525e+03
3.423044e+02,3.216842e+03
3.538752e+02,3.246472e+03
3.654461e+02,3.261167e+03
3.770169e+02,3.291855e+03
3.885877e+02,3.274661e+03
4.001585e+02,3.277085e+03
4.117293e+02,3.278212e+03
4.233001e+02,3.286359e+03
4.348709e+02,3.315336e+03
4.464417e+02,3.285981e+03
4.580125e+02,3.323410e+03
4.695833e+02,3.326137e+03
4.811541e+02,3.313543e+03
4.927249e+02,3.328565e+03
5.042957e+02,3.335648e+03
5.158665e+02,3.355716e+03
5.274373e+02,3.354656e+03
5.390081e+02,3.323293e+03
5.505789e+02,3.340944e+03
5.621497e+02,3.376621e+03
5.737205e+02,3.358933e+03
5.852913e+02,3.348689e+03
5.968621e+02,3.354557e+03
6.084329e+02,3.364394e+03
6.200037e+02,3.364438e+03
6.315745e+02,3.342020e+03
6.431453e+02,3.349141e+03
6.547161e+02,3.340548e+03
6.662869e+02,3.338882e+03
6.778577e+02,3.317155e+03
6.894285e+02,3.326803e+03
7.009993e+02,3.333295e+03
7.125701e+02,3.316835e+03
7.241409e+02,3.340560e+03
7.357117e+02,3.338442e+03
7.472825e+02,3.312628e+03
7.588533e+02,3.305795e+03
7.704241e+02,3.303839e+03
7.819949e+02,3.302757e+03
7.935657e+02,3.335030e+03
8.051365e+02,3.291543e+03
8.167073e+02,3.275600e+03
8.282781e+02,3.289039e+03
8.398489e+02,3.277707e+03
8.514197e+02,3.262816e+03
8.629905e+02,3.244348e+03
8.745613e+02,3.245067e+03
8.861321e+02,3.232783e+03
8.977029e+02,3.228728e+03
9.092737e+02,3.203448e+03
9.208445e+02,3.207843e+03
9.324153e+02,3.206238e+03
9.439861e+02,3.199937e+03
9.555569e+02,3.148674e+03
9.671277e+02,3.150061e+03
9.786985e+02,3.131147e+03
9.902693e+02,3.122067e+03
1.001840e+03,3.106100e+03
1.013411e+03,3.091490e+03
1.024982e+03,3.080352e+03
1.036552e+03,3.068117e+03
1.048123e+03,3.063307e+03
1.059694e+03,3.037308e+03
1.071265e+03,3.046901e+03
1.082836e+03,3.030242e+03
1.094406e+03,3.051509e+03
1.105977e+03,3.009077e+03
1.117548e+03,3.052156e+03
1.129119e+03,3.007164e+03
1.140690e+03,2.964969e+03
1.152261e+03,2.965167e+03
1.163831e+03,2.922194e+03
1.175402e+03,2.901839e+03
1.186973e+03,2.892907e+03
1.198544e+03,2.891971e+03
1.210115e+03,2.856465e+03
1.221685e+03,2.836490e+03
1.233256e+03,2.833531e+03
1.244827e+03,2.818930e+03
1.256398e+03,2.803441e+03
1.267969e+03,2.815551e+03
1.279539e+03,2.768785e+03
1.291110e+03,2.753428e+03
1.302681e+03,2.746292e+03
1.314252e+03,2.727125e+03
1.325823e+03,2.715986e+03
1.337393e+03,2.716395e+03
1.348964e+03,2.703855e+03
1.360535e+03,2.701513e+03
1.372106e+03,2.767200e+03
1.383677e+03,2.702635e+03
1.395247e+03,2.665895e+03
1.406818e+03,2.654744e+03
1.418389e+03,2.622637e+03
1.429960e+03,2.599253e+03
1.441531e+03,2.588616e+03
1.453101e+03,2.575630e+03
1.464672e+03,2.586350e+03
1.476243e+03,2.565821e+03
1.487814e+03,2.540675e+03
1.499385e+03,2.520771e+03
1.510955e+03,2.488778e+03
1.522526e+03,2.489723e+03
1.534097e+03,2.472363e+03
1.545668e+03,2.463642e+03
1.557239e+03,2.450088e+03
1.568809e+03,2.462579e+03
1.580380e+03,2.461810e+03
1.591951e+03,2.490272e+03
1.603522e+03,2.423876e+03
1.615093e+03,2.382547e+03
1.626663e+03,2.381180e+03
1.638234e+03,2.358024e+03
1.649805e+03,2.342203e+03
1.661376e+03,2.338736e+03
1.672947e+03,2.319962e+03
1.684517e+03,2.303022e+03
1.696088e+03,2.315140e+03
1.707659e+03,2.291553e+03
1.719230e+03,2.286944e+03
1.730801e+03,2.270050e+03
1.742371e+03,2.251812e+03
1.753942e+03,2.225088e+03
1.765513e+03,2.235484e+03
1.777084e+03,2.212943e+03
1.788655e+03,2.207707e+03
1.800225e+03,2.203366e+03
1.811796e+03,2.184208e+03
1.823367e+03,2.156880e+03
1.834938e+03,2.152452e+03
1.846509e+03,2.136877e+03
1.858079e+03,2.116968e+03
1.869650e+03,2.100346e+03
1.881221e+03,2.112011e+03
1.892792e+03,2.081333e+03
1.904363e+03,2.062053e+03
1.915933e+03,2.056514e+03
1.927504e+03,2.035488e+03
1.939075e+03,2.025637e+03
1.950646e+03,2.000904e+03
1.962217e+03,2.010987e+03
1.973787e+03,1.983276e+03
1.985358e+03,1.969795e+03
1.996929e+03,1.959410e+03
2.008500e+03,1.946714e+03
2.020071e+03,1.929926e+03
2.031641e+03,1.904073e+03
2.043212e+03,1.889646e+03
2.054783e+03,1.890531e+03
2.066354e+03,1.865657e+03
2.077925e+03,1.837366e+03
2.089496e+03,1.840591e+03
2.101066e+03,1.808671e+03
2.112637e+03,1.792035e+03
2.124208e+03,1.786855e+03
2.135779e+03,1.756161e+03
2.147350e+03,1.739130e+03
2.158920e+03,1.724152e+03
2.170491e+03,1.730236e+03
2.182062e+03,1.712379e+03
2.193633e+03,1.684666e+03
2.205204e+03,1.677810e+03
2.216774e+03,1.647893e+03
2.228345e+03,1.614096e+03
2.239916e+03,1.625467e+03
2.251487e+03,1.580936e+03
2.263058e+03,1.592519e+03
2.274628e+03,1.570733e+03
2.286199e+03,1.553314e+03
2.297770e+03,1.534237e+03
2.309341e+03,1.526588e+03
2.320912e+03,1.511603e+03
2.332482e+03,1.501324e+03
2.344053e+03,1.481960e+03
2.355624e+03,1.473494e+03
2.367195e+03,1.456062e+03
2.378766e+03,1.441213e+03
2.390336e+03,1.425230e+03
2.401907e+03,1.416513e+03
2.413478e+03,1.393273e+03
2.425049e+03,1.419270e+03
2.436620e+03,1.398602e+03
2.448190e+03,1.355755e+03
2.459761e+03,1.339882e+03
2.471332e+03,1.341727e+03
2.482903e+03,1.348337e+03
2.494474e+03,1.310251e+03
2.506044e+03,1.308646e+03
2.517615e+03,1.284192e+03
2.529186e+03,1.284546e+03
2.540757e+03,1.275998e+03
2.552328e+03,1.270369e+03
2.563898e+03,1.270978e+03
2.575469e+03,1.252447e+03
2.587040e+03,1.235748e+03
2.598611e+03,1.223492e+03
2.610182e+03,1.212300e+03
2.621752e+03,1.214551e+03
2.633323e+03,1.191837e+03
2.644894e+03,1.173441e+03
2.656465e+03,1.189508e+03
2.668036e+03,1.176647e+03
2.679606e+03,1.169686e+03
2.691177e+03,1.153275e+03
2.702748e+03,1.134298e+03
2.714319e+03,1.141061e+03
2.725890e+03,1.128199e+03
2.737460e+03,1.108455e+03
2.749031e+03,1.106215e+03
2.760602e+03,1.095493e+03
2.772173e+03,1.096335e+03
2.783744e+03,1.092956e+03
2.795314e+03,1.076514e+03
2.806885e+03,1.064633e+03
2.818456e+03,1.050933e+03
2.830027e+03,1.089416e+03
2.841598e+03,1.069274e+03
2.853168e+03,1.069632e+03
2.864739e+03,1.056612e+03
2.876310e+03,1.067629e+03
2.887881e+03,1.064621e+03
2.899452e+03,1.097713e+03
2.911022e+03,1.065139e+03
2.922593e+03,1.039479e+03
2.934164e+03,1.030179e+03
2.945735e+03,1.013725e+03
2.957306e+03,1.036106e+03
2.968876e+03,9.880773e+02
2.980447e+03,9.549500e+02
2.992018e+03,9.466161e+02
3.003589e+03,9.662088e+02
3.015160e+03,9.495394e+02
3.026730e+03,9.487375e+02
3.038301e+03,9.608161e+02
3.049872e+03,9.424385e+02
3.061443e+03,9.450470e+02
3.073014e+03,8.799922e+02
3.084584e+03,9.216642e+02
3.096155e+03,9.345385e+02
3.107726e+03,9.173254e+02
3.119297e+03,9.264148e+02
3.130868e+03,9.125880e+02
3.142438e+03,9.140145e+02
3.154009e+03,8.918525e+02
3.165580e+03,8.963976e+02
3.177151e+03,8.951734e+02
3.188722e+03,9.430191e+02
3.200292e+03,9.442111e+02
3.211863e+03,0.000000e+00
3.223434e+03,0.000000e+00
3.235005e+03,0.000000e+00
3.246576e+03,0.000000e+00
3.258146e+03,0.000000e+00
3.269717e+03,0.000000e+00
3.281288e+03,0.000000e+00
3.292859e+03,0.000000e+00
3.304430e+03,0.000000e+00
3.316000e+03,0.000000e+00
3.327571e+03,0.000000e+00
3.339142e+03,0.000000e+00
3.350713e+03,0.000000e+00
3.362284e+03,0.000000e+00
3.373854e+03,0.000000e+00
3.385425e+03,0.000000e+00
3.396996e+03,0.000000e+00
3.408567e+03,0.000000e+00
3.420138e+03,0.000000e+00
3.431708e+03,0.000000e+00
3.443279e+03,0.000000e+00
3.454850e+03,0.000000e+00
3.466421e+03,0.000000e+00
3.477992e+03,0.000000e+00
3.489563e+03,0.000000e+00
3.500169e+03,0.000000e+00