File: RAMAN_data/12022024_r2/red fibre1.CSV
9.931763e+01,0.000000e+00
1.108884e+02,0.000000e+00
1.224592e+02,0.000000e+00
1.340300e+02,0.000000e+00
1.456008e+02,0.000000e+00
1.571716e+02,0.000000e+00
1.687424e+02,0.000000e+00
1.803132e+02,0.000000e+00
1.918840e+02,0.000000e+00
2.034548e+02,2.553173e+03
2.150256e+02,2.551009e+03
2.265964e+02,2.551595e+03
2.381673e+02,2.566853e+03
2.497381e+02,2.575851e+03
2.613088e+02,2.580538e+03
2.728796e+02,2.583015e+03
2.844504e+02,2.598039e+03
2.960212e+02,2.590175e+03
3.075920e+02,2.571700e+03
3.191628e+02,2.576660e+03
3.307336e+02,2.584524e+03
3.423044e+02,2.563805e+03
3.538752e+02,2.590564e+03
3.654461e+02,2.569521e+03
3.770169e+02,2.595926e+03
3.885877e+02,2.562653e+03
4.001585e+02,2.549728e+03
4.117293e+02,2.536544e+03
4.233001e+02,2.535583e+03
4.348709e+02,2.542454e+03
4.464417e+02,2.509918e+03
4.580125e+02,2.511646e+03
4.695833e+02,2.496235e+03
4.811541e+02,2.487438e+03
4.927249e+02,2.473474e+03
5.042957e+02,2.457050e+03
5.158665e+02,2.477863e+03
5.274373e+02,2.460000e+03
5.390081e+02,2.438648e+03
5.505789e+02,2.425389e+03
5.621497e+02,2.409849e+03
5.737205e+02,2.408318e+03
5.852913e+02,2.399096e+03
5.968621e+02,2.386275e+03
6.084329e+02,2.376813e+03
6.200037e+02,2.348248e+03
6.315745e+02,2.354427e+03
6.431453e+02,2.342845e+03
6.547161e+02,2.322858e+03
6.662869e+02,2.295520e+03
6.778577e+02,2.288186e+03
6.894285e+02,2.289303e+03
7.009993e+02,2.265022e+03
7.125701e+02,2.261239e+03
7.241409e+02,2.251612e+03
7.357117e+02,2.230815e+03
7.472825e+02,2.223877e+03
7.588533e+02,2.196818e+03
7.704241e+02,2.195142e+03
7.819949e+02,2.165987e+03
7.935657e+02,2.169660e+03
8.051365e+02,2.153432e+03
8.167073e+02,2.134359e+03
8.282781e+02,2.115713e+03
8.398489e+02,2.113243e+03
8.514197e+02,2.101751e+03
8.629905e+02,2.091248e+03
8.745613e+02,2.078535e+03
8.861321e+02,2.073608e+03
8.977029e+02,2.053523e+03
9.092737e+02,2.025234e+03
9.208445e+02,2.016292e+03
9.324153e+02,1.995033e+03
9.439861e+02,1.997780e+03
9.555569e+02,1.974796e+03
9.671277e+02,1.973012e+03
9.786985e+02,1.965225e+03
9.902693e+02,1.948199e+03
1.001840e+03,1.930359e+03
1.013411e+03,1.920699e+03
1.024982e+03,1.906078e+03
1.036552e+03,1.906734e+03
1.048123e+03,1.886408e+03
1.059694e+03,1.882386e+03
1.071265e+03,1.879760e+03
1.082836e+03,1.883890e+03
1.094406e+03,1.890413e+03
1.105977e+03,1.861061e+03
1.117548e+03,1.857190e+03
1.129119e+03,1.835728e+03
1.140690e+03,1.819005e+03
1.152261e+03,1.813756e+03
1.163831e+03,1.798549e+03
1.175402e+03,1.782888e+03
1.186973e+03,1.763699e+03
1.198544e+03,1.769591e+03
1.210115e+03,1.753708e+03
1.221685e+03,1.756181e+03
1.233256e+03,1.738142e+03
1.244827e+03,1.742084e+03
1.256398e+03,1.742968e+03
1.267969e+03,1.720869e+03
1.279539e+03,1.709366e+03
1.291110e+03,1.724699e+03
1.302681e+03,1.698985e+03
1.314252e+03,1.681310e+03
1.325823e+03,1.696056e+03
1.337393e+03,1.689268e+03
1.348964e+03,1.686013e+03
1.360535e+03,1.663554e+03
1.372106e+03,1.662867e+03
1.383677e+03,1.652666e+03
1.395247e+03,1.627919e+03
1.406818e+03,1.636673e+03
1.418389e+03,1.623234e+03
1.429960e+03,1.608553e+03
1.441531e+03,1.594918e+03
1.453101e+03,1.584911e+03
1.464672e+03,1.579757e+03
1.476243e+03,1.573527e+03
1.487814e+03,1.544327e+03
1.499385e+03,1.538477e+03
1.510955e+03,1.541399e+03
1.522526e+03,1.523250e+03
1.534097e+03,1.513523e+03
1.545668e+03,1.501070e+03
1.557239e+03,1.512283e+03
1.568809e+03,1.497092e+03
1.580380e+03,1.499671e+03
1.591951e+03,1.497857e+03
1.603522e+03,1.475150e+03
1.615093e+03,1.466530e+03
1.626663e+03,1.463907e+03
1.638234e+03,1.430114e+03
1.649805e+03,1.427082e+03
1.661376e+03,1.414680e+03
1.672947e+03,1.387785e+03
1.684517e+03,1.389668e+03
1.696088e+03,1.370822e+03
1.707659e+03,1.356692e+03
1.719230e+03,1.360593e+03
1.730801e+03,1.327679e+03
1.742371e+03,1.336391e+03
1.753942e+03,1.318684e+03
1.765513e+03,1.308934e+03
1.777084e+03,1.314846e+03
1.788655e+03,1.286476e+03
1.800225e+03,1.280791e+03
1.811796e+03,1.277492e+03
1.823367e+03,1.260148e+03
1.834938e+03,1.248327e+03
1.846509e+03,1.246970e+03
1.858079e+03,1.225384e+03
1.869650e+03,1.221358e+03
1.881221e+03,1.194910e+03
1.892792e+03,1.193701e+03
1.904363e+03,1.173957e+03
1.915933e+03,1.165483e+03
1.927504e+03,1.165957e+03
1.939075e+03,1.140946e+03
1.950646e+03,1.139672e+03
1.962217e+03,1.136885e+03
1.973787e+03,1.126585e+03
1.985358e+03,1.094600e+03
1.996929e+03,1.098311e+03
2.008500e+03,1.073792e+03
2.020071e+03,1.070838e+03
2.031641e+03,1.063523e+03
2.043212e+03,1.044709e+03
2.054783e+03,1.026502e+03
2.066354e+03,1.027098e+03
2.077925e+03,1.004065e+03
2.089496e+03,1.004101e+03
2.101066e+03,9.886348e+02
2.112637e+03,9.751005e+02
2.124208e+03,9.839483e+02
2.135779e+03,9.544337e+02
2.147350e+03,9.348561e+02
2.158920e+03,9.471360e+02
2.170491e+03,9.289307e+02
2.182062e+03,9.153325e+02
2.193633e+03,8.960991e+02
2.205204e+03,8.935107e+02
2.216774e+03,8.782932e+02
2.228345e+03,8.587510e+02
2.239916e+03,8.711765e+02
2.251487e+03,8.548656e+02
2.263058e+03,8.470875e+02
2.274628e+03,8.458674e+02
2.286199e+03,8.161915e+02
2.297770e+03,8.358834e+02
2.309341e+03,8.123511e+02
2.320912e+03,8.017855e+02
2.332482e+03,7.886730e+02
2.344053e+03,7.772083e+02
2.355624e+03,7.591581e+02
2.367195e+03,7.736562e+02
2.378766e+03,7.504605e+02
2.390336e+03,7.420768e+02
2.401907e+03,7.379461e+02
2.413478e+03,7.306976e+02
2.425049e+03,7.196353e+02
2.436620e+03,7.159838e+02
2.448190e+03,7.058290e+02
2.459761e+03,6.972029e+02
2.471332e+03,6.930986e+02
2.482903e+03,6.874656e+02
2.494474e+03,6.672990e+02
2.506044e+03,6.767756e+02
2.517615e+03,6.663182e+02
2.529186e+03,6.618456e+02
2.540757e+03,6.579090e+02
2.552328e+03,6.613417e+02
2.563898e+03,6.403195e+02
2.575469e+03,6.483715e+02
2.587040e+03,6.366825e+02
2.598611e+03,6.271569e+02
2.610182e+03,6.309633e+02
2.621752e+03,6.186503e+02
2.633323e+03,6.051298e+02
2.644894e+03,5.901062e+02
2.656465e+03,6.003228e+02
2.668036e+03,5.971904e+02
2.679606e+03,5.861689e+02
2.691177e+03,5.885867e+02
2.702748e+03,5.640781e+02
2.714319e+03,5.860687e+02
2.725890e+03,5.607100e+02
2.737460e+03,5.574943e+02
2.749031e+03,5.635123e+02
2.760602e+03,5.525887e+02
2.772173e+03,5.610361e+02
2.783744e+03,5.535969e+02
2.795314e+03,5.492685e+02
2.806885e+03,5.383299e+02
2.818456e+03,5.328684e+02
2.830027e+03,5.287011e+02
2.841598e+03,5.412650e+02
2.853168e+03,5.385778e+02
2.864739e+03,5.561744e+02
2.876310e+03,5.548509e+02
2.887881e+03,5.609014e+02
2.899452e+03,5.623161e+02
2.911022e+03,5.583763e+02
2.922593e+03,5.174242e+02
2.934164e+03,5.186262e+02
2.945735e+03,5.289994e+02
2.957306e+03,5.373349e+02
2.968876e+03,5.067789e+02
2.980447e+03,4.977065e+02
2.992018e+03,4.826837e+02
3.003589e+03,4.597376e+02
3.015160e+03,4.717570e+02
3.026730e+03,4.596124e+02
3.038301e+03,4.665770e+02
3.049872e+03,4.821477e+02
3.061443e+03,4.649209e+02
3.073014e+03,4.807104e+02
3.084584e+03,4.527614e+02
3.096155e+03,4.773613e+02
3.107726e+03,4.643389e+02
3.119297e+03,4.527996e+02
3.130868e+03,4.876087e+02
3.142438e+03,4.835643e+02
3.154009e+03,4.542239e+02
3.165580e+03,4.792526e+02
3.177151e+03,4.516602e+02
3.188722e+03,4.594755e+02
3.200292e+03,4.941993e+02
3.211863e+03,0.000000e+00
3.223434e+03,0.000000e+00
3.235005e+03,0.000000e+00
3.246576e+03,0.000000e+00
3.258146e+03,0.000000e+00
3.269717e+03,0.000000e+00
3.281288e+03,0.000000e+00
3.292859e+03,0.000000e+00
3.304430e+03,0.000000e+00
3.316000e+03,0.000000e+00
3.327571e+03,0.000000e+00
3.339142e+03,0.000000e+00
3.350713e+03,0.000000e+00
3.362284e+03,0.000000e+00
3.373854e+03,0.000000e+00
3.385425e+03,0.000000e+00
3.396996e+03,0.000000e+00
3.408567e+03,0.000000e+00
3.420138e+03,0.000000e+00
3.431708e+03,0.000000e+00
3.443279e+03,0.000000e+00
3.454850e+03,0.000000e+00
3.466421e+03,0.000000e+00
3.477992e+03,0.000000e+00
3.489563e+03,0.000000e+00
3.500169e+03,0.000000e+00