File: RAMAN_data/12022024_r2/red fibre4.CSV
9.931763e+01,0.000000e+00
1.108884e+02,0.000000e+00
1.224592e+02,0.000000e+00
1.340300e+02,0.000000e+00
1.456008e+02,0.000000e+00
1.571716e+02,0.000000e+00
1.687424e+02,0.000000e+00
1.803132e+02,0.000000e+00
1.918840e+02,0.000000e+00
2.034548e+02,1.294458e+03
2.150256e+02,1.293343e+03
2.265964e+02,1.284597e+03
2.381673e+02,1.295290e+03
2.497381e+02,1.284787e+03
2.613088e+02,1.290025e+03
2.728796e+02,1.291054e+03
2.844504e+02,1.299150e+03
2.960212e+02,1.285084e+03
3.075920e+02,1.280013e+03
3.191628e+02,1.266725e+03
3.307336e+02,1.273878e+03
3.423044e+02,1.263369e+03
3.538752e+02,1.251805e+03
3.654461e+02,1.254781e+03
3.770169e+02,1.273415e+03
3.885877e+02,1.239819e+03
4.001585e+02,1.225206e+03
4.117293e+02,1.219660e+03
4.233001e+02,1.229557e+03
4.348709e+02,1.242522e+03
4.464417e+02,1.212329e+03
4.580125e+02,1.206714e+03
4.695833e+02,1.193416e+03
4.811541e+02,1.192442e+03
4.927249e+02,1.178437e+03
5.042957e+02,1.169773e+03
5.158665e+02,1.161289e+03
5.274373e+02,1.152237e+03
5.390081e+02,1.133051e+03
5.505789e+02,1.128221e+03
5.621497e+02,1.130693e+03
5.737205e+02,1.107931e+03
5.852913e+02,1.109599e+03
5.968621e+02,1.106007e+03
6.084329e+02,1.107779e+03
6.200037e+02,1.092813e+03
6.315745e+02,1.088889e+03
6.431453e+02,1.078485e+03
6.547161e+02,1.066955e+03
6.662869e+02,1.054152e+03
6.778577e+02,1.050233e+03
6.894285e+02,1.040118e+03
7.009993e+02,1.030434e+03
7.125701e+02,1.026149e+03
7.241409e+02,1.011643e+03
7.357117e+02,1.001028e+03
7.472825e+02,9.978300e+02
7.588533e+02,9.944396e+02
7.704241e+02,9.771374e+02
7.819949e+02,9.723195e+02
7.935657e+02,9.754851e+02
8.051365e+02,9.617858e+02
8.167073e+02,9.613143e+02
8.282781e+02,9.640191e+02
8.398489e+02,9.546115e+02
8.514197e+02,9.431647e+02
8.629905e+02,9.494399e+02
8.745613e+02,9.390359e+02
8.861321e+02,9.329960e+02
8.977029e+02,9.312556e+02
9.092737e+02,9.135983e+02
9.208445e+02,9.082809e+02
9.324153e+02,8.934371e+02
9.439861e+02,8.918556e+02
9.555569e+02,8.873855e+02
9.671277e+02,8.833649e+02
9.786985e+02,8.772654e+02
9.902693e+02,8.814047e+02
1.001840e+03,8.739265e+02
1.013411e+03,8.588420e+02
1.024982e+03,8.636932e+02
1.036552e+03,8.705886e+02
1.048123e+03,8.627883e+02
1.059694e+03,8.649094e+02
1.071265e+03,8.725131e+02
1.082836e+03,8.748779e+02
1.094406e+03,9.087011e+02
1.105977e+03,8.747382e+02
1.117548e+03,8.907802e+02
1.129119e+03,8.640917e+02
1.140690e+03,8.561668e+02
1.152261e+03,8.409036e+02
1.163831e+03,8.279398e+02
1.175402e+03,8.233774e+02
1.186973e+03,8.209460e+02
1.198544e+03,8.347123e+02
1.210115e+03,8.165961e+02
1.221685e+03,8.075396e+02
1.233256e+03,8.013984e+02
1.244827e+03,8.065315e+02
1.256398e+03,7.980305e+02
1.267969e+03,7.946119e+02
1.279539e+03,8.091653e+02
1.291110e+03,8.057147e+02
1.302681e+03,7.883683e+02
1.314252e+03,8.000339e+02
1.325823e+03,8.019519e+02
1.337393e+03,8.219250e+02
1.348964e+03,7.962199e+02
1.360535e+03,7.966115e+02
1.372106e+03,7.966016e+02
1.383677e+03,7.974158e+02
1.395247e+03,7.704571e+02
1.406818e+03,7.647121e+02
1.418389e+03,7.589642e+02
1.429960e+03,7.508193e+02
1.441531e+03,7.427391e+02
1.453101e+03,7.407987e+02
1.464672e+03,7.385085e+02
1.476243e+03,7.340872e+02
1.487814e+03,7.270573e+02
1.499385e+03,7.215502e+02
1.510955e+03,7.186191e+02
1.522526e+03,7.140107e+02
1.534097e+03,7.040354e+02
1.545668e+03,7.095006e+02
1.557239e+03,6.993688e+02
1.568809e+03,7.000305e+02
1.580380e+03,6.895850e+02
1.591951e+03,6.927392e+02
1.603522e+03,7.023826e+02
1.615093e+03,7.212341e+02
1.626663e+03,6.811552e+02
1.638234e+03,6.659090e+02
1.649805e+03,6.589363e+02
1.661376e+03,6.577270e+02
1.672947e+03,6.478781e+02
1.684517e+03,6.443026e+02
1.696088e+03,6.411439e+02
1.707659e+03,6.455207e+02
1.719230e+03,6.539445e+02
1.730801e+03,6.482379e+02
1.742371e+03,6.265258e+02
1.753942e+03,6.226414e+02
1.765513e+03,6.128876e+02
1.777084e+03,6.071415e+02
1.788655e+03,5.961188e+02
1.800225e+03,5.860052e+02
1.811796e+03,5.811459e+02
1.823367e+03,5.807926e+02
1.834938e+03,5.653196e+02
1.846509e+03,5.655157e+02
1.858079e+03,5.583298e+02
1.869650e+03,5.537701e+02
1.881221e+03,5.527332e+02
1.892792e+03,5.472405e+02
1.904363e+03,5.423031e+02
1.915933e+03,5.391934e+02
1.927504e+03,5.198140e+02
1.939075e+03,5.125015e+02
1.950646e+03,5.079824e+02
1.962217e+03,5.084898e+02
1.973787e+03,5.013176e+02
1.985358e+03,4.981785e+02
1.996929e+03,4.879484e+02
2.008500e+03,4.799164e+02
2.020071e+03,4.715443e+02
2.031641e+03,4.747976e+02
2.043212e+03,4.663877e+02
2.054783e+03,4.627187e+02
2.066354e+03,4.611265e+02
2.077925e+03,4.631581e+02
2.089496e+03,4.474643e+02
2.101066e+03,4.431908e+02
2.112637e+03,4.382709e+02
2.124208e+03,4.344164e+02
2.135779e+03,4.165215e+02
2.147350e+03,4.037452e+02
2.158920e+03,4.065698e+02
2.170491e+03,4.097777e+02
2.182062e+03,3.985913e+02
2.193633e+03,3.881658e+02
2.205204e+03,4.007603e+02
2.216774e+03,3.852671e+02
2.228345e+03,3.850834e+02
2.239916e+03,3.859110e+02
2.251487e+03,3.725666e+02
2.263058e+03,3.760876e+02
2.274628e+03,3.631049e+02
2.286199e+03,3.710528e+02
2.297770e+03,3.567697e+02
2.309341e+03,3.540913e+02
2.320912e+03,3.410931e+02
2.332482e+03,3.391889e+02
2.344053e+03,3.462953e+02
2.355624e+03,3.363197e+02
2.367195e+03,3.316776e+02
2.378766e+03,3.280457e+02
2.390336e+03,3.222451e+02
2.401907e+03,3.200347e+02
2.413478e+03,3.163555e+02
2.425049e+03,3.123012e+02
2.436620e+03,3.186245e+02
2.448190e+03,3.084817e+02
2.459761e+03,3.030357e+02
2.471332e+03,2.971880e+02
2.482903e+03,2.933555e+02
2.494474e+03,2.884861e+02
2.506044e+03,2.935532e+02
2.517615e+03,2.870717e+02
2.529186e+03,2.780022e+02
2.540757e+03,2.865834e+02
2.552328e+03,2.883253e+02
2.563898e+03,2.931507e+02
2.575469e+03,2.945776e+02
2.587040e+03,2.762059e+02
2.598611e+03,2.677068e+02
2.610182e+03,2.654947e+02
2.621752e+03,2.656226e+02
2.633323e+03,2.665771e+02
2.644894e+03,2.633907e+02
2.656465e+03,2.700800e+02
2.668036e+03,2.539280e+02
2.679606e+03,2.618134e+02
2.691177e+03,2.594327e+02
2.702748e+03,2.498071e+02
2.714319e+03,2.637226e+02
2.725890e+03,2.519369e+02
2.737460e+03,2.519055e+02
2.749031e+03,2.490885e+02
2.760602e+03,2.515290e+02
2.772173e+03,2.398113e+02
2.783744e+03,2.556895e+02
2.795314e+03,2.460175e+02
2.806885e+03,2.401066e+02
2.818456e+03,2.425797e+02
2.830027e+03,2.474505e+02
2.841598e+03,2.506003e+02
2.853168e+03,2.610022e+02
2.864739e+03,2.463937e+02
2.876310e+03,2.882372e+02
2.887881e+03,2.898672e+02
2.899452e+03,2.975663e+02
2.911022e+03,2.863773e+02
2.922593e+03,2.456190e+02
2.934164e+03,2.559053e+02
2.945735e+03,2.529039e+02
2.957306e+03,2.857138e+02
2.968876e+03,2.483391e+02
2.980447e+03,2.399907e+02
2.992018e+03,2.226871e+02
3.003589e+03,2.121792e+02
3.015160e+03,2.287398e+02
3.026730e+03,2.045408e+02
3.038301e+03,2.032463e+02
3.049872e+03,2.186413e+02
3.061443e+03,2.200280e+02
3.073014e+03,1.896344e+02
3.084584e+03,2.174959e+02
3.096155e+03,2.106385e+02
3.107726e+03,2.453802e+02
3.119297e+03,2.258719e+02
3.130868e+03,2.194987e+02
3.142438e+03,2.262283e+02
3.154009e+03,2.243858e+02
3.165580e+03,2.347370e+02
3.177151e+03,2.218890e+02
3.188722e+03,1.913308e+02
3.200292e+03,2.414054e+02
3.211863e+03,0.000000e+00
3.223434e+03,0.000000e+00
3.235005e+03,0.000000e+00
3.246576e+03,0.000000e+00
3.258146e+03,0.000000e+00
3.269717e+03,0.000000e+00
3.281288e+03,0.000000e+00
3.292859e+03,0.000000e+00
3.304430e+03,0.000000e+00
3.316000e+03,0.000000e+00
3.327571e+03,0.000000e+00
3.339142e+03,0.000000e+00
3.350713e+03,0.000000e+00
3.362284e+03,0.000000e+00
3.373854e+03,0.000000e+00
3.385425e+03,0.000000e+00
3.396996e+03,0.000000e+00
3.408567e+03,0.000000e+00
3.420138e+03,0.000000e+00
3.431708e+03,0.000000e+00
3.443279e+03,0.000000e+00
3.454850e+03,0.000000e+00
3.466421e+03,0.000000e+00
3.477992e+03,0.000000e+00
3.489563e+03,0.000000e+00
3.500169e+03,0.000000e+00