File: RAMAN_data/13042023_r2/black fibre2.CSV
9.931763e+01,0.000000e+00
1.108884e+02,0.000000e+00
1.224592e+02,0.000000e+00
1.340300e+02,0.000000e+00
1.456008e+02,0.000000e+00
1.571716e+02,0.000000e+00
1.687424e+02,0.000000e+00
1.803132e+02,0.000000e+00
1.918840e+02,0.000000e+00
2.034548e+02,8.414605e+03
2.150256e+02,8.371696e+03
2.265964e+02,8.275332e+03
2.381673e+02,8.258160e+03
2.497381e+02,8.220037e+03
2.613088e+02,8.141036e+03
2.728796e+02,8.080249e+03
2.844504e+02,8.032816e+03
2.960212e+02,7.963024e+03
3.075920e+02,7.887436e+03
3.191628e+02,7.847599e+03
3.307336e+02,7.762779e+03
3.423044e+02,7.686195e+03
3.538752e+02,7.625160e+03
3.654461e+02,7.562563e+03
3.770169e+02,7.518428e+03
3.885877e+02,7.437107e+03
4.001585e+02,7.378825e+03
4.117293e+02,7.313951e+03
4.233001e+02,7.235731e+03
4.348709e+02,7.205057e+03
4.464417e+02,7.108254e+03
4.580125e+02,7.056883e+03
4.695833e+02,7.025926e+03
4.811541e+02,6.969962e+03
4.927249e+02,6.902200e+03
5.042957e+02,6.837239e+03
5.158665e+02,6.810463e+03
5.274373e+02,6.748727e+03
5.390081e+02,6.674625e+03
5.505789e+02,6.631783e+03
5.621497e+02,6.584099e+03
5.737205e+02,6.539317e+03
5.852913e+02,6.481823e+03
5.968621e+02,6.456260e+03
6.084329e+02,6.413298e+03
6.200037e+02,6.357897e+03
6.315745e+02,6.320769e+03
6.431453e+02,6.281054e+03
6.547161e+02,6.220118e+03
6.662869e+02,6.201413e+03
6.778577e+02,6.135008e+03
6.894285e+02,6.072290e+03
7.009993e+02,6.069311e+03
7.125701e+02,6.012208e+03
7.241409e+02,5.976666e+03
7.357117e+02,5.952707e+03
7.472825e+02,5.904320e+03
7.588533e+02,5.851689e+03
7.704241e+02,5.805693e+03
7.819949e+02,5.762089e+03
7.935657e+02,5.757650e+03
8.051365e+02,5.708541e+03
8.167073e+02,5.680223e+03
8.282781e+02,5.644568e+03
8.398489e+02,5.608417e+03
8.514197e+02,5.547893e+03
8.629905e+02,5.512222e+03
8.745613e+02,5.479376e+03
8.861321e+02,5.484134e+03
8.977029e+02,5.426097e+03
9.092737e+02,5.387970e+03
9.208445e+02,5.347093e+03
9.324153e+02,5.316196e+03
9.439861e+02,5.279166e+03
9.555569e+02,5.216809e+03
9.671277e+02,5.197360e+03
9.786985e+02,5.171241e+03
9.902693e+02,5.119591e+03
1.001840e+03,5.093542e+03
1.013411e+03,5.066131e+03
1.024982e+03,5.037769e+03
1.036552e+03,5.004119e+03
1.048123e+03,4.955958e+03
1.059694e+03,4.942633e+03
1.071265e+03,4.927299e+03
1.082836e+03,4.893187e+03
1.094406e+03,4.868550e+03
1.105977e+03,4.835526e+03
1.117548e+03,4.845211e+03
1.129119e+03,4.782024e+03
1.140690e+03,4.762760e+03
1.152261e+03,4.765088e+03
1.163831e+03,4.719471e+03
1.175402e+03,4.639787e+03
1.186973e+03,4.622076e+03
1.198544e+03,4.614244e+03
1.210115e+03,4.584144e+03
1.221685e+03,4.560693e+03
1.233256e+03,4.495560e+03
1.244827e+03,4.509018e+03
1.256398e+03,4.460577e+03
1.267969e+03,4.433095e+03
1.279539e+03,4.413950e+03
1.291110e+03,4.385447e+03
1.302681e+03,4.360619e+03
1.314252e+03,4.316964e+03
1.325823e+03,4.293536e+03
1.337393e+03,4.294619e+03
1.348964e+03,4.255666e+03
1.360535e+03,4.232796e+03
1.372106e+03,4.209655e+03
1.383677e+03,4.167258e+03
1.395247e+03,4.117351e+03
1.406818e+03,4.084839e+03
1.418389e+03,4.090885e+03
1.429960e+03,4.055793e+03
1.441531e+03,4.025145e+03
1.453101e+03,3.976980e+03
1.464672e+03,3.961032e+03
1.476243e+03,3.925218e+03
1.487814e+03,3.912051e+03
1.499385e+03,3.881784e+03
1.510955e+03,3.862047e+03
1.522526e+03,3.837721e+03
1.534097e+03,3.800659e+03
1.545668e+03,3.773052e+03
1.557239e+03,3.777531e+03
1.568809e+03,3.762475e+03
1.580380e+03,3.738067e+03
1.591951e+03,3.727949e+03
1.603522e+03,3.678909e+03
1.615093e+03,3.630613e+03
1.626663e+03,3.605072e+03
1.638234e+03,3.560598e+03
1.649805e+03,3.542791e+03
1.661376e+03,3.508543e+03
1.672947e+03,3.491179e+03
1.684517e+03,3.462724e+03
1.696088e+03,3.421813e+03
1.707659e+03,3.384411e+03
1.719230e+03,3.384306e+03
1.730801e+03,3.342590e+03
1.742371e+03,3.325538e+03
1.753942e+03,3.294533e+03
1.765513e+03,3.273958e+03
1.777084e+03,3.231939e+03
1.788655e+03,3.212425e+03
1.800225e+03,3.201565e+03
1.811796e+03,3.159792e+03
1.823367e+03,3.124613e+03
1.834938e+03,3.097024e+03
1.846509e+03,3.076612e+03
1.858079e+03,3.046739e+03
1.869650e+03,3.002214e+03
1.881221e+03,2.983173e+03
1.892792e+03,2.984249e+03
1.904363e+03,2.947216e+03
1.915933e+03,2.878667e+03
1.927504e+03,2.874373e+03
1.939075e+03,2.862494e+03
1.950646e+03,2.824043e+03
1.962217e+03,2.816130e+03
1.973787e+03,2.766382e+03
1.985358e+03,2.733056e+03
1.996929e+03,2.724666e+03
2.008500e+03,2.678740e+03
2.020071e+03,2.656052e+03
2.031641e+03,2.641404e+03
2.043212e+03,2.606796e+03
2.054783e+03,2.579917e+03
2.066354e+03,2.565943e+03
2.077925e+03,2.533611e+03
2.089496e+03,2.516089e+03
2.101066e+03,2.462352e+03
2.112637e+03,2.436905e+03
2.124208e+03,2.436662e+03
2.135779e+03,2.388724e+03
2.147350e+03,2.367229e+03
2.158920e+03,2.323132e+03
2.170491e+03,2.332663e+03
2.182062e+03,2.290723e+03
2.193633e+03,2.279832e+03
2.205204e+03,2.268737e+03
2.216774e+03,2.226290e+03
2.228345e+03,2.214360e+03
2.239916e+03,2.170734e+03
2.251487e+03,2.149878e+03
2.263058e+03,2.134414e+03
2.274628e+03,2.083802e+03
2.286199e+03,2.075525e+03
2.297770e+03,2.083715e+03
2.309341e+03,2.028284e+03
2.320912e+03,2.021395e+03
2.332482e+03,1.983181e+03
2.344053e+03,1.985855e+03
2.355624e+03,1.958051e+03
2.367195e+03,1.917984e+03
2.378766e+03,1.925361e+03
2.390336e+03,1.914634e+03
2.401907e+03,1.885789e+03
2.413478e+03,1.850605e+03
2.425049e+03,1.851250e+03
2.436620e+03,1.819728e+03
2.448190e+03,1.823454e+03
2.459761e+03,1.777999e+03
2.471332e+03,1.782483e+03
2.482903e+03,1.743982e+03
2.494474e+03,1.724824e+03
2.506044e+03,1.710938e+03
2.517615e+03,1.701683e+03
2.529186e+03,1.689491e+03
2.540757e+03,1.644960e+03
2.552328e+03,1.662922e+03
2.563898e+03,1.637749e+03
2.575469e+03,1.632560e+03
2.587040e+03,1.615619e+03
2.598611e+03,1.587958e+03
2.610182e+03,1.590227e+03
2.621752e+03,1.570201e+03
2.633323e+03,1.552764e+03
2.644894e+03,1.545453e+03
2.656465e+03,1.535971e+03
2.668036e+03,1.538072e+03
2.679606e+03,1.514877e+03
2.691177e+03,1.507035e+03
2.702748e+03,1.474501e+03
2.714319e+03,1.453887e+03
2.725890e+03,1.459556e+03
2.737460e+03,1.454914e+03
2.749031e+03,1.436849e+03
2.760602e+03,1.445531e+03
2.772173e+03,1.418187e+03
2.783744e+03,1.405261e+03
2.795314e+03,1.384573e+03
2.806885e+03,1.391174e+03
2.818456e+03,1.365869e+03
2.830027e+03,1.370185e+03
2.841598e+03,1.362968e+03
2.853168e+03,1.358567e+03
2.864739e+03,1.339057e+03
2.876310e+03,1.329218e+03
2.887881e+03,1.314413e+03
2.899452e+03,1.322542e+03
2.911022e+03,1.321968e+03
2.922593e+03,1.289114e+03
2.934164e+03,1.279380e+03
2.945735e+03,1.322118e+03
2.957306e+03,1.300270e+03
2.968876e+03,1.251071e+03
2.980447e+03,1.229681e+03
2.992018e+03,1.270558e+03
3.003589e+03,1.251374e+03
3.015160e+03,1.225170e+03
3.026730e+03,1.236353e+03
3.038301e+03,1.198430e+03
3.049872e+03,1.190492e+03
3.061443e+03,1.223674e+03
3.073014e+03,1.192056e+03
3.084584e+03,1.187359e+03
3.096155e+03,1.178965e+03
3.107726e+03,1.216123e+03
3.119297e+03,1.201427e+03
3.130868e+03,1.225422e+03
3.142438e+03,1.184022e+03
3.154009e+03,1.208846e+03
3.165580e+03,1.217660e+03
3.177151e+03,1.150935e+03
3.188722e+03,1.142782e+03
3.200292e+03,1.212571e+03
3.211863e+03,0.000000e+00
3.223434e+03,0.000000e+00
3.235005e+03,0.000000e+00
3.246576e+03,0.000000e+00
3.258146e+03,0.000000e+00
3.269717e+03,0.000000e+00
3.281288e+03,0.000000e+00
3.292859e+03,0.000000e+00
3.304430e+03,0.000000e+00
3.316000e+03,0.000000e+00
3.327571e+03,0.000000e+00
3.339142e+03,0.000000e+00
3.350713e+03,0.000000e+00
3.362284e+03,0.000000e+00
3.373854e+03,0.000000e+00
3.385425e+03,0.000000e+00
3.396996e+03,0.000000e+00
3.408567e+03,0.000000e+00
3.420138e+03,0.000000e+00
3.431708e+03,0.000000e+00
3.443279e+03,0.000000e+00
3.454850e+03,0.000000e+00
3.466421e+03,0.000000e+00
3.477992e+03,0.000000e+00
3.489563e+03,0.000000e+00
3.500169e+03,0.000000e+00