File: RAMAN_data/13042023_r2/black fibre5.CSV
9.931763e+01,0.000000e+00
1.108884e+02,0.000000e+00
1.224592e+02,0.000000e+00
1.340300e+02,0.000000e+00
1.456008e+02,0.000000e+00
1.571716e+02,0.000000e+00
1.687424e+02,0.000000e+00
1.803132e+02,0.000000e+00
1.918840e+02,0.000000e+00
2.034548e+02,6.744017e+03
2.150256e+02,6.682396e+03
2.265964e+02,6.626966e+03
2.381673e+02,6.618658e+03
2.497381e+02,6.545338e+03
2.613088e+02,6.531145e+03
2.728796e+02,6.509333e+03
2.844504e+02,6.467755e+03
2.960212e+02,6.418433e+03
3.075920e+02,6.388241e+03
3.191628e+02,6.318505e+03
3.307336e+02,6.299319e+03
3.423044e+02,6.243827e+03
3.538752e+02,6.192511e+03
3.654461e+02,6.126713e+03
3.770169e+02,6.147639e+03
3.885877e+02,6.087984e+03
4.001585e+02,6.025764e+03
4.117293e+02,5.997397e+03
4.233001e+02,5.950538e+03
4.348709e+02,5.918605e+03
4.464417e+02,5.865675e+03
4.580125e+02,5.810311e+03
4.695833e+02,5.748637e+03
4.811541e+02,5.750800e+03
4.927249e+02,5.695433e+03
5.042957e+02,5.633296e+03
5.158665e+02,5.625046e+03
5.274373e+02,5.587002e+03
5.390081e+02,5.517052e+03
5.505789e+02,5.518153e+03
5.621497e+02,5.467823e+03
5.737205e+02,5.426266e+03
5.852913e+02,5.371807e+03
5.968621e+02,5.358719e+03
6.084329e+02,5.312070e+03
6.200037e+02,5.296981e+03
6.315745e+02,5.262288e+03
6.431453e+02,5.204361e+03
6.547161e+02,5.178830e+03
6.662869e+02,5.150213e+03
6.778577e+02,5.112553e+03
6.894285e+02,5.080712e+03
7.009993e+02,5.052676e+03
7.125701e+02,5.004563e+03
7.241409e+02,4.992098e+03
7.357117e+02,4.985160e+03
7.472825e+02,4.935235e+03
7.588533e+02,4.861845e+03
7.704241e+02,4.844275e+03
7.819949e+02,4.817000e+03
7.935657e+02,4.832479e+03
8.051365e+02,4.746375e+03
8.167073e+02,4.721722e+03
8.282781e+02,4.709883e+03
8.398489e+02,4.676975e+03
8.514197e+02,4.659444e+03
8.629905e+02,4.624461e+03
8.745613e+02,4.603041e+03
8.861321e+02,4.566119e+03
8.977029e+02,4.518886e+03
9.092737e+02,4.501794e+03
9.208445e+02,4.463739e+03
9.324153e+02,4.437759e+03
9.439861e+02,4.390739e+03
9.555569e+02,4.388905e+03
9.671277e+02,4.352165e+03
9.786985e+02,4.341163e+03
9.902693e+02,4.300876e+03
1.001840e+03,4.258011e+03
1.013411e+03,4.246801e+03
1.024982e+03,4.243028e+03
1.036552e+03,4.216136e+03
1.048123e+03,4.186808e+03
1.059694e+03,4.181880e+03
1.071265e+03,4.187678e+03
1.082836e+03,4.157345e+03
1.094406e+03,4.131528e+03
1.105977e+03,4.104125e+03
1.117548e+03,4.087062e+03
1.129119e+03,4.075269e+03
1.140690e+03,4.047913e+03
1.152261e+03,4.053493e+03
1.163831e+03,4.040569e+03
1.175402e+03,3.985846e+03
1.186973e+03,3.966525e+03
1.198544e+03,3.943585e+03
1.210115e+03,3.915679e+03
1.221685e+03,3.885724e+03
1.233256e+03,3.848634e+03
1.244827e+03,3.851152e+03
1.256398e+03,3.846589e+03
1.267969e+03,3.809956e+03
1.279539e+03,3.814186e+03
1.291110e+03,3.793643e+03
1.302681e+03,3.758691e+03
1.314252e+03,3.756834e+03
1.325823e+03,3.805212e+03
1.337393e+03,3.764594e+03
1.348964e+03,3.710759e+03
1.360535e+03,3.682532e+03
1.372106e+03,3.652505e+03
1.383677e+03,3.651429e+03
1.395247e+03,3.606615e+03
1.406818e+03,3.560763e+03
1.418389e+03,3.568439e+03
1.429960e+03,3.544562e+03
1.441531e+03,3.517116e+03
1.453101e+03,3.483117e+03
1.464672e+03,3.476918e+03
1.476243e+03,3.455517e+03
1.487814e+03,3.442804e+03
1.499385e+03,3.385782e+03
1.510955e+03,3.396645e+03
1.522526e+03,3.385232e+03
1.534097e+03,3.359159e+03
1.545668e+03,3.356290e+03
1.557239e+03,3.328721e+03
1.568809e+03,3.326233e+03
1.580380e+03,3.315782e+03
1.591951e+03,3.278770e+03
1.603522e+03,3.270615e+03
1.615093e+03,3.257859e+03
1.626663e+03,3.192980e+03
1.638234e+03,3.156550e+03
1.649805e+03,3.130691e+03
1.661376e+03,3.130483e+03
1.672947e+03,3.097637e+03
1.684517e+03,3.069694e+03
1.696088e+03,3.042543e+03
1.707659e+03,3.043415e+03
1.719230e+03,3.032468e+03
1.730801e+03,2.994023e+03
1.742371e+03,2.958061e+03
1.753942e+03,2.932199e+03
1.765513e+03,2.917301e+03
1.777084e+03,2.901915e+03
1.788655e+03,2.875680e+03
1.800225e+03,2.877087e+03
1.811796e+03,2.832938e+03
1.823367e+03,2.803889e+03
1.834938e+03,2.763594e+03
1.846509e+03,2.779858e+03
1.858079e+03,2.736431e+03
1.869650e+03,2.707938e+03
1.881221e+03,2.675500e+03
1.892792e+03,2.667680e+03
1.904363e+03,2.636265e+03
1.915933e+03,2.593413e+03
1.927504e+03,2.591206e+03
1.939075e+03,2.572047e+03
1.950646e+03,2.549890e+03
1.962217e+03,2.540306e+03
1.973787e+03,2.523751e+03
1.985358e+03,2.496241e+03
1.996929e+03,2.473039e+03
2.008500e+03,2.425321e+03
2.020071e+03,2.417619e+03
2.031641e+03,2.403736e+03
2.043212e+03,2.371614e+03
2.054783e+03,2.331846e+03
2.066354e+03,2.328049e+03
2.077925e+03,2.297696e+03
2.089496e+03,2.291907e+03
2.101066e+03,2.255202e+03
2.112637e+03,2.233300e+03
2.124208e+03,2.232422e+03
2.135779e+03,2.195743e+03
2.147350e+03,2.156671e+03
2.158920e+03,2.137048e+03
2.170491e+03,2.137564e+03
2.182062e+03,2.108968e+03
2.193633e+03,2.067294e+03
2.205204e+03,2.068684e+03
2.216774e+03,2.070587e+03
2.228345e+03,2.004395e+03
2.239916e+03,2.013977e+03
2.251487e+03,1.990588e+03
2.263058e+03,1.972780e+03
2.274628e+03,1.927696e+03
2.286199e+03,1.938184e+03
2.297770e+03,1.903558e+03
2.309341e+03,1.892241e+03
2.320912e+03,1.853832e+03
2.332482e+03,1.838373e+03
2.344053e+03,1.822654e+03
2.355624e+03,1.801858e+03
2.367195e+03,1.788835e+03
2.378766e+03,1.787223e+03
2.390336e+03,1.779896e+03
2.401907e+03,1.756046e+03
2.413478e+03,1.722018e+03
2.425049e+03,1.735433e+03
2.436620e+03,1.715219e+03
2.448190e+03,1.674635e+03
2.459761e+03,1.680699e+03
2.471332e+03,1.635492e+03
2.482903e+03,1.640460e+03
2.494474e+03,1.650428e+03
2.506044e+03,1.627953e+03
2.517615e+03,1.616624e+03
2.529186e+03,1.621516e+03
2.540757e+03,1.583519e+03
2.552328e+03,1.592274e+03
2.563898e+03,1.565774e+03
2.575469e+03,1.558013e+03
2.587040e+03,1.537435e+03
2.598611e+03,1.514644e+03
2.610182e+03,1.501411e+03
2.621752e+03,1.502407e+03
2.633323e+03,1.493171e+03
2.644894e+03,1.485699e+03
2.656465e+03,1.471244e+03
2.668036e+03,1.482307e+03
2.679606e+03,1.429025e+03
2.691177e+03,1.453755e+03
2.702748e+03,1.412875e+03
2.714319e+03,1.432131e+03
2.725890e+03,1.414343e+03
2.737460e+03,1.396857e+03
2.749031e+03,1.410159e+03
2.760602e+03,1.363005e+03
2.772173e+03,1.377740e+03
2.783744e+03,1.348362e+03
2.795314e+03,1.368721e+03
2.806885e+03,1.342083e+03
2.818456e+03,1.354309e+03
2.830027e+03,1.320435e+03
2.841598e+03,1.325200e+03
2.853168e+03,1.332082e+03
2.864739e+03,1.324650e+03
2.876310e+03,1.334518e+03
2.887881e+03,1.321688e+03
2.899452e+03,1.326013e+03
2.911022e+03,1.324746e+03
2.922593e+03,1.279401e+03
2.934164e+03,1.264689e+03
2.945735e+03,1.261008e+03
2.957306e+03,1.307100e+03
2.968876e+03,1.229053e+03
2.980447e+03,1.222844e+03
2.992018e+03,1.225883e+03
3.003589e+03,1.232033e+03
3.015160e+03,1.190814e+03
3.026730e+03,1.215801e+03
3.038301e+03,1.192448e+03
3.049872e+03,1.203444e+03
3.061443e+03,1.191930e+03
3.073014e+03,1.212552e+03
3.084584e+03,1.169405e+03
3.096155e+03,1.202031e+03
3.107726e+03,1.182437e+03
3.119297e+03,1.193879e+03
3.130868e+03,1.139491e+03
3.142438e+03,1.171930e+03
3.154009e+03,1.201657e+03
3.165580e+03,1.182598e+03
3.177151e+03,1.153090e+03
3.188722e+03,1.147824e+03
3.200292e+03,1.193262e+03
3.211863e+03,0.000000e+00
3.223434e+03,0.000000e+00
3.235005e+03,0.000000e+00
3.246576e+03,0.000000e+00
3.258146e+03,0.000000e+00
3.269717e+03,0.000000e+00
3.281288e+03,0.000000e+00
3.292859e+03,0.000000e+00
3.304430e+03,0.000000e+00
3.316000e+03,0.000000e+00
3.327571e+03,0.000000e+00
3.339142e+03,0.000000e+00
3.350713e+03,0.000000e+00
3.362284e+03,0.000000e+00
3.373854e+03,0.000000e+00
3.385425e+03,0.000000e+00
3.396996e+03,0.000000e+00
3.408567e+03,0.000000e+00
3.420138e+03,0.000000e+00
3.431708e+03,0.000000e+00
3.443279e+03,0.000000e+00
3.454850e+03,0.000000e+00
3.466421e+03,0.000000e+00
3.477992e+03,0.000000e+00
3.489563e+03,0.000000e+00
3.500169e+03,0.000000e+00