File: RAMAN_data/13042023_r2/black fibre1.CSV
9.931763e+01,0.000000e+00
1.108884e+02,0.000000e+00
1.224592e+02,0.000000e+00
1.340300e+02,0.000000e+00
1.456008e+02,0.000000e+00
1.571716e+02,0.000000e+00
1.687424e+02,0.000000e+00
1.803132e+02,0.000000e+00
1.918840e+02,0.000000e+00
2.034548e+02,2.139302e+03
2.150256e+02,2.107098e+03
2.265964e+02,2.088103e+03
2.381673e+02,2.076202e+03
2.497381e+02,2.040335e+03
2.613088e+02,2.004947e+03
2.728796e+02,1.986286e+03
2.844504e+02,1.958969e+03
2.960212e+02,1.923823e+03
3.075920e+02,1.913236e+03
3.191628e+02,1.881699e+03
3.307336e+02,1.861540e+03
3.423044e+02,1.829397e+03
3.538752e+02,1.806286e+03
3.654461e+02,1.775674e+03
3.770169e+02,1.770143e+03
3.885877e+02,1.733074e+03
4.001585e+02,1.693454e+03
4.117293e+02,1.679188e+03
4.233001e+02,1.656977e+03
4.348709e+02,1.652204e+03
4.464417e+02,1.640302e+03
4.580125e+02,1.606090e+03
4.695833e+02,1.565006e+03
4.811541e+02,1.563635e+03
4.927249e+02,1.536032e+03
5.042957e+02,1.514244e+03
5.158665e+02,1.497272e+03
5.274373e+02,1.483307e+03
5.390081e+02,1.462529e+03
5.505789e+02,1.437170e+03
5.621497e+02,1.432531e+03
5.737205e+02,1.402291e+03
5.852913e+02,1.401838e+03
5.968621e+02,1.383221e+03
6.084329e+02,1.368336e+03
6.200037e+02,1.342776e+03
6.315745e+02,1.342945e+03
6.431453e+02,1.319031e+03
6.547161e+02,1.302866e+03
6.662869e+02,1.305791e+03
6.778577e+02,1.266432e+03
6.894285e+02,1.255595e+03
7.009993e+02,1.262788e+03
7.125701e+02,1.237399e+03
7.241409e+02,1.239002e+03
7.357117e+02,1.222783e+03
7.472825e+02,1.220626e+03
7.588533e+02,1.202495e+03
7.704241e+02,1.181711e+03
7.819949e+02,1.171662e+03
7.935657e+02,1.167590e+03
8.051365e+02,1.155052e+03
8.167073e+02,1.145635e+03
8.282781e+02,1.126979e+03
8.398489e+02,1.135863e+03
8.514197e+02,1.110971e+03
8.629905e+02,1.114277e+03
8.745613e+02,1.112948e+03
8.861321e+02,1.107748e+03
8.977029e+02,1.085607e+03
9.092737e+02,1.070761e+03
9.208445e+02,1.058110e+03
9.324153e+02,1.047853e+03
9.439861e+02,1.046458e+03
9.555569e+02,1.042360e+03
9.671277e+02,1.025128e+03
9.786985e+02,1.013733e+03
9.902693e+02,1.007536e+03
1.001840e+03,1.000873e+03
1.013411e+03,9.865688e+02
1.024982e+03,9.880338e+02
1.036552e+03,9.875865e+02
1.048123e+03,9.733880e+02
1.059694e+03,9.701487e+02
1.071265e+03,9.673848e+02
1.082836e+03,9.653708e+02
1.094406e+03,9.816287e+02
1.105977e+03,9.610009e+02
1.117548e+03,9.545425e+02
1.129119e+03,9.289925e+02
1.140690e+03,9.105506e+02
1.152261e+03,9.079622e+02
1.163831e+03,8.854944e+02
1.175402e+03,8.787558e+02
1.186973e+03,8.758896e+02
1.198544e+03,8.757640e+02
1.210115e+03,8.528757e+02
1.221685e+03,8.475561e+02
1.233256e+03,8.370611e+02
1.244827e+03,8.361432e+02
1.256398e+03,8.327346e+02
1.267969e+03,8.337941e+02
1.279539e+03,8.309635e+02
1.291110e+03,8.204869e+02
1.302681e+03,8.043708e+02
1.314252e+03,8.101122e+02
1.325823e+03,8.067117e+02
1.337393e+03,8.061059e+02
1.348964e+03,8.015736e+02
1.360535e+03,7.833298e+02
1.372106e+03,7.873173e+02
1.383677e+03,7.806740e+02
1.395247e+03,7.575715e+02
1.406818e+03,7.512698e+02
1.418389e+03,7.485781e+02
1.429960e+03,7.437552e+02
1.441531e+03,7.317625e+02
1.453101e+03,7.239570e+02
1.464672e+03,7.222842e+02
1.476243e+03,7.174180e+02
1.487814e+03,7.071709e+02
1.499385e+03,6.928620e+02
1.510955e+03,6.934557e+02
1.522526e+03,6.817587e+02
1.534097e+03,6.787693e+02
1.545668e+03,6.720309e+02
1.557239e+03,6.689637e+02
1.568809e+03,6.659951e+02
1.580380e+03,6.524816e+02
1.591951e+03,6.553827e+02
1.603522e+03,6.490217e+02
1.615093e+03,6.404761e+02
1.626663e+03,6.509932e+02
1.638234e+03,6.296078e+02
1.649805e+03,6.239753e+02
1.661376e+03,6.086991e+02
1.672947e+03,6.093033e+02
1.684517e+03,6.064987e+02
1.696088e+03,6.022802e+02
1.707659e+03,5.966302e+02
1.719230e+03,5.930495e+02
1.730801e+03,5.809633e+02
1.742371e+03,5.715048e+02
1.753942e+03,5.751149e+02
1.765513e+03,5.628693e+02
1.777084e+03,5.521188e+02
1.788655e+03,5.395836e+02
1.800225e+03,5.494456e+02
1.811796e+03,5.361563e+02
1.823367e+03,5.395717e+02
1.834938e+03,5.357304e+02
1.846509e+03,5.288804e+02
1.858079e+03,5.106477e+02
1.869650e+03,5.159969e+02
1.881221e+03,5.140383e+02
1.892792e+03,5.021261e+02
1.904363e+03,5.004317e+02
1.915933e+03,4.946783e+02
1.927504e+03,4.888466e+02
1.939075e+03,4.862141e+02
1.950646e+03,4.768165e+02
1.962217e+03,4.693518e+02
1.973787e+03,4.740257e+02
1.985358e+03,4.662405e+02
1.996929e+03,4.561646e+02
2.008500e+03,4.514752e+02
2.020071e+03,4.454589e+02
2.031641e+03,4.408526e+02
2.043212e+03,4.392562e+02
2.054783e+03,4.318083e+02
2.066354e+03,4.220460e+02
2.077925e+03,4.187698e+02
2.089496e+03,4.255434e+02
2.101066e+03,4.160097e+02
2.112637e+03,4.107837e+02
2.124208e+03,4.144747e+02
2.135779e+03,4.003802e+02
2.147350e+03,3.938306e+02
2.158920e+03,3.927551e+02
2.170491e+03,3.974125e+02
2.182062e+03,3.932149e+02
2.193633e+03,3.753236e+02
2.205204e+03,3.728853e+02
2.216774e+03,3.627442e+02
2.228345e+03,3.692531e+02
2.239916e+03,3.565110e+02
2.251487e+03,3.636996e+02
2.263058e+03,3.576916e+02
2.274628e+03,3.422336e+02
2.286199e+03,3.436147e+02
2.297770e+03,3.394406e+02
2.309341e+03,3.378300e+02
2.320912e+03,3.327779e+02
2.332482e+03,3.299845e+02
2.344053e+03,3.241919e+02
2.355624e+03,3.218297e+02
2.367195e+03,3.234420e+02
2.378766e+03,3.136977e+02
2.390336e+03,3.109635e+02
2.401907e+03,3.142076e+02
2.413478e+03,3.041071e+02
2.425049e+03,2.962766e+02
2.436620e+03,3.027674e+02
2.448190e+03,2.930173e+02
2.459761e+03,2.989458e+02
2.471332e+03,2.903515e+02
2.482903e+03,2.925139e+02
2.494474e+03,2.862281e+02
2.506044e+03,2.874823e+02
2.517615e+03,2.830034e+02
2.529186e+03,2.820031e+02
2.540757e+03,2.814924e+02
2.552328e+03,2.755255e+02
2.563898e+03,2.825719e+02
2.575469e+03,2.849315e+02
2.587040e+03,2.619420e+02
2.598611e+03,2.647946e+02
2.610182e+03,2.616905e+02
2.621752e+03,2.767440e+02
2.633323e+03,2.673973e+02
2.644894e+03,2.508412e+02
2.656465e+03,2.562819e+02
2.668036e+03,2.522290e+02
2.679606e+03,2.517815e+02
2.691177e+03,2.578837e+02
2.702748e+03,2.523890e+02
2.714319e+03,2.483940e+02
2.725890e+03,2.378718e+02
2.737460e+03,2.455501e+02
2.749031e+03,2.518593e+02
2.760602e+03,2.492323e+02
2.772173e+03,2.469741e+02
2.783744e+03,2.429433e+02
2.795314e+03,2.430383e+02
2.806885e+03,2.394582e+02
2.818456e+03,2.382819e+02
2.830027e+03,2.411691e+02
2.841598e+03,2.511794e+02
2.853168e+03,2.582047e+02
2.864739e+03,2.569807e+02
2.876310e+03,2.716009e+02
2.887881e+03,2.649133e+02
2.899452e+03,2.807061e+02
2.911022e+03,2.771355e+02
2.922593e+03,2.558086e+02
2.934164e+03,2.560326e+02
2.945735e+03,2.458414e+02
2.957306e+03,2.847531e+02
2.968876e+03,2.440401e+02
2.980447e+03,2.089715e+02
2.992018e+03,2.160489e+02
3.003589e+03,2.287341e+02
3.015160e+03,2.199358e+02
3.026730e+03,2.063222e+02
3.038301e+03,2.284512e+02
3.049872e+03,2.258998e+02
3.061443e+03,2.078591e+02
3.073014e+03,2.054959e+02
3.084584e+03,2.099222e+02
3.096155e+03,2.121430e+02
3.107726e+03,2.255550e+02
3.119297e+03,2.030176e+02
3.130868e+03,2.267786e+02
3.142438e+03,2.141550e+02
3.154009e+03,2.306308e+02
3.165580e+03,2.303235e+02
3.177151e+03,2.244272e+02
3.188722e+03,2.241887e+02
3.200292e+03,2.379792e+02
3.211863e+03,0.000000e+00
3.223434e+03,0.000000e+00
3.235005e+03,0.000000e+00
3.246576e+03,0.000000e+00
3.258146e+03,0.000000e+00
3.269717e+03,0.000000e+00
3.281288e+03,0.000000e+00
3.292859e+03,0.000000e+00
3.304430e+03,0.000000e+00
3.316000e+03,0.000000e+00
3.327571e+03,0.000000e+00
3.339142e+03,0.000000e+00
3.350713e+03,0.000000e+00
3.362284e+03,0.000000e+00
3.373854e+03,0.000000e+00
3.385425e+03,0.000000e+00
3.396996e+03,0.000000e+00
3.408567e+03,0.000000e+00
3.420138e+03,0.000000e+00
3.431708e+03,0.000000e+00
3.443279e+03,0.000000e+00
3.454850e+03,0.000000e+00
3.466421e+03,0.000000e+00
3.477992e+03,0.000000e+00
3.489563e+03,0.000000e+00
3.500169e+03,0.000000e+00