File: RAMAN_data/13042023_r2/blue fibre7.CSV
9.931763e+01,0.000000e+00
1.108884e+02,0.000000e+00
1.224592e+02,0.000000e+00
1.340300e+02,0.000000e+00
1.456008e+02,0.000000e+00
1.571716e+02,0.000000e+00
1.687424e+02,0.000000e+00
1.803132e+02,0.000000e+00
1.918840e+02,0.000000e+00
2.034548e+02,9.977842e+03
2.150256e+02,9.942644e+03
2.265964e+02,9.962134e+03
2.381673e+02,9.976521e+03
2.497381e+02,9.973240e+03
2.613088e+02,9.973253e+03
2.728796e+02,9.979361e+03
2.844504e+02,1.002187e+04
2.960212e+02,9.902706e+03
3.075920e+02,9.887370e+03
3.191628e+02,9.773873e+03
3.307336e+02,9.711689e+03
3.423044e+02,9.634610e+03
3.538752e+02,9.567223e+03
3.654461e+02,9.476752e+03
3.770169e+02,9.438152e+03
3.885877e+02,9.358021e+03
4.001585e+02,9.253739e+03
4.117293e+02,9.164972e+03
4.233001e+02,9.094205e+03
4.348709e+02,9.014349e+03
4.464417e+02,8.910753e+03
4.580125e+02,8.839083e+03
4.695833e+02,8.780797e+03
4.811541e+02,8.691340e+03
4.927249e+02,8.641021e+03
5.042957e+02,8.562407e+03
5.158665e+02,8.520032e+03
5.274373e+02,8.455334e+03
5.390081e+02,8.387101e+03
5.505789e+02,8.305688e+03
5.621497e+02,8.290965e+03
5.737205e+02,8.188898e+03
5.852913e+02,8.084100e+03
5.968621e+02,8.078086e+03
6.084329e+02,8.017961e+03
6.200037e+02,7.903571e+03
6.315745e+02,7.839179e+03
6.431453e+02,7.790202e+03
6.547161e+02,7.769880e+03
6.662869e+02,7.684872e+03
6.778577e+02,7.623134e+03
6.894285e+02,7.548286e+03
7.009993e+02,7.524403e+03
7.125701e+02,7.472575e+03
7.241409e+02,7.417063e+03
7.357117e+02,7.356499e+03
7.472825e+02,7.295033e+03
7.588533e+02,7.226279e+03
7.704241e+02,7.158502e+03
7.819949e+02,7.123245e+03
7.935657e+02,7.095492e+03
8.051365e+02,7.043962e+03
8.167073e+02,6.993624e+03
8.282781e+02,6.922107e+03
8.398489e+02,6.891640e+03
8.514197e+02,6.835292e+03
8.629905e+02,6.779864e+03
8.745613e+02,6.722375e+03
8.861321e+02,6.684675e+03
8.977029e+02,6.650936e+03
9.092737e+02,6.576434e+03
9.208445e+02,6.543453e+03
9.324153e+02,6.480398e+03
9.439861e+02,6.406029e+03
9.555569e+02,6.355976e+03
9.671277e+02,6.308927e+03
9.786985e+02,6.274730e+03
9.902693e+02,6.210750e+03
1.001840e+03,6.166752e+03
1.013411e+03,6.113281e+03
1.024982e+03,6.079076e+03
1.036552e+03,6.034482e+03
1.048123e+03,5.954075e+03
1.059694e+03,5.925032e+03
1.071265e+03,5.903865e+03
1.082836e+03,5.853092e+03
1.094406e+03,5.817379e+03
1.105977e+03,5.740853e+03
1.117548e+03,5.731811e+03
1.129119e+03,5.653124e+03
1.140690e+03,5.585347e+03
1.152261e+03,5.568153e+03
1.163831e+03,5.524723e+03
1.175402e+03,5.451957e+03
1.186973e+03,5.429450e+03
1.198544e+03,5.388614e+03
1.210115e+03,5.358245e+03
1.221685e+03,5.303989e+03
1.233256e+03,5.258236e+03
1.244827e+03,5.224488e+03
1.256398e+03,5.170346e+03
1.267969e+03,5.137709e+03
1.279539e+03,5.102362e+03
1.291110e+03,5.052227e+03
1.302681e+03,5.019308e+03
1.314252e+03,4.977271e+03
1.325823e+03,4.923892e+03
1.337393e+03,4.928205e+03
1.348964e+03,4.876067e+03
1.360535e+03,4.817724e+03
1.372106e+03,4.802279e+03
1.383677e+03,4.751466e+03
1.395247e+03,4.680203e+03
1.406818e+03,4.651844e+03
1.418389e+03,4.634534e+03
1.429960e+03,4.602056e+03
1.441531e+03,4.562067e+03
1.453101e+03,4.502282e+03
1.464672e+03,4.484238e+03
1.476243e+03,4.451487e+03
1.487814e+03,4.398955e+03
1.499385e+03,4.381693e+03
1.510955e+03,4.315317e+03
1.522526e+03,4.296770e+03
1.534097e+03,4.267545e+03
1.545668e+03,4.217091e+03
1.557239e+03,4.204696e+03
1.568809e+03,4.241390e+03
1.580380e+03,4.183473e+03
1.591951e+03,4.090091e+03
1.603522e+03,4.065380e+03
1.615093e+03,4.023585e+03
1.626663e+03,3.980703e+03
1.638234e+03,3.930915e+03
1.649805e+03,3.898313e+03
1.661376e+03,3.862394e+03
1.672947e+03,3.821393e+03
1.684517e+03,3.769862e+03
1.696088e+03,3.751886e+03
1.707659e+03,3.736580e+03
1.719230e+03,3.687738e+03
1.730801e+03,3.637684e+03
1.742371e+03,3.618705e+03
1.753942e+03,3.570083e+03
1.765513e+03,3.543967e+03
1.777084e+03,3.498600e+03
1.788655e+03,3.463385e+03
1.800225e+03,3.466646e+03
1.811796e+03,3.406385e+03
1.823367e+03,3.378845e+03
1.834938e+03,3.335519e+03
1.846509e+03,3.292451e+03
1.858079e+03,3.279325e+03
1.869650e+03,3.235386e+03
1.881221e+03,3.185905e+03
1.892792e+03,3.160078e+03
1.904363e+03,3.154690e+03
1.915933e+03,3.109561e+03
1.927504e+03,3.081687e+03
1.939075e+03,3.049112e+03
1.950646e+03,2.990345e+03
1.962217e+03,2.994856e+03
1.973787e+03,2.956750e+03
1.985358e+03,2.902991e+03
1.996929e+03,2.879120e+03
2.008500e+03,2.832303e+03
2.020071e+03,2.810461e+03
2.031641e+03,2.777810e+03
2.043212e+03,2.727721e+03
2.054783e+03,2.712452e+03
2.066354e+03,2.655155e+03
2.077925e+03,2.647243e+03
2.089496e+03,2.626536e+03
2.101066e+03,2.580019e+03
2.112637e+03,2.544392e+03
2.124208e+03,2.550313e+03
2.135779e+03,2.511418e+03
2.147350e+03,2.431065e+03
2.158920e+03,2.425784e+03
2.170491e+03,2.401319e+03
2.182062e+03,2.372708e+03
2.193633e+03,2.317389e+03
2.205204e+03,2.338825e+03
2.216774e+03,2.309503e+03
2.228345e+03,2.248366e+03
2.239916e+03,2.235062e+03
2.251487e+03,2.191688e+03
2.263058e+03,2.167028e+03
2.274628e+03,2.121416e+03
2.286199e+03,2.100926e+03
2.297770e+03,2.091795e+03
2.309341e+03,2.062339e+03
2.320912e+03,2.047274e+03
2.332482e+03,2.018203e+03
2.344053e+03,2.000544e+03
2.355624e+03,1.970936e+03
2.367195e+03,1.934910e+03
2.378766e+03,1.897538e+03
2.390336e+03,1.912845e+03
2.401907e+03,1.862332e+03
2.413478e+03,1.831821e+03
2.425049e+03,1.813456e+03
2.436620e+03,1.814141e+03
2.448190e+03,1.789862e+03
2.459761e+03,1.754562e+03
2.471332e+03,1.731215e+03
2.482903e+03,1.719463e+03
2.494474e+03,1.687758e+03
2.506044e+03,1.677825e+03
2.517615e+03,1.657962e+03
2.529186e+03,1.640139e+03
2.540757e+03,1.621456e+03
2.552328e+03,1.622340e+03
2.563898e+03,1.586359e+03
2.575469e+03,1.571204e+03
2.587040e+03,1.560475e+03
2.598611e+03,1.558782e+03
2.610182e+03,1.545107e+03
2.621752e+03,1.508254e+03
2.633323e+03,1.495833e+03
2.644894e+03,1.478600e+03
2.656465e+03,1.483999e+03
2.668036e+03,1.460072e+03
2.679606e+03,1.439498e+03
2.691177e+03,1.447600e+03
2.702748e+03,1.410708e+03
2.714319e+03,1.399509e+03
2.725890e+03,1.378571e+03
2.737460e+03,1.371654e+03
2.749031e+03,1.378394e+03
2.760602e+03,1.353113e+03
2.772173e+03,1.344342e+03
2.783744e+03,1.323549e+03
2.795314e+03,1.320092e+03
2.806885e+03,1.334623e+03
2.818456e+03,1.284808e+03
2.830027e+03,1.297386e+03
2.841598e+03,1.287184e+03
2.853168e+03,1.266888e+03
2.864739e+03,1.290750e+03
2.876310e+03,1.249912e+03
2.887881e+03,1.270535e+03
2.899452e+03,1.278826e+03
2.911022e+03,1.247997e+03
2.922593e+03,1.230077e+03
2.934164e+03,1.228928e+03
2.945735e+03,1.258266e+03
2.957306e+03,1.233409e+03
2.968876e+03,1.162503e+03
2.980447e+03,1.205805e+03
2.992018e+03,1.143363e+03
3.003589e+03,1.173893e+03
3.015160e+03,1.140364e+03
3.026730e+03,1.130288e+03
3.038301e+03,1.141790e+03
3.049872e+03,1.163478e+03
3.061443e+03,1.118714e+03
3.073014e+03,1.129374e+03
3.084584e+03,1.150320e+03
3.096155e+03,1.102633e+03
3.107726e+03,1.077104e+03
3.119297e+03,1.096877e+03
3.130868e+03,1.099246e+03
3.142438e+03,1.122500e+03
3.154009e+03,1.131127e+03
3.165580e+03,1.107191e+03
3.177151e+03,1.107056e+03
3.188722e+03,1.120540e+03
3.200292e+03,1.149425e+03
3.211863e+03,0.000000e+00
3.223434e+03,0.000000e+00
3.235005e+03,0.000000e+00
3.246576e+03,0.000000e+00
3.258146e+03,0.000000e+00
3.269717e+03,0.000000e+00
3.281288e+03,0.000000e+00
3.292859e+03,0.000000e+00
3.304430e+03,0.000000e+00
3.316000e+03,0.000000e+00
3.327571e+03,0.000000e+00
3.339142e+03,0.000000e+00
3.350713e+03,0.000000e+00
3.362284e+03,0.000000e+00
3.373854e+03,0.000000e+00
3.385425e+03,0.000000e+00
3.396996e+03,0.000000e+00
3.408567e+03,0.000000e+00
3.420138e+03,0.000000e+00
3.431708e+03,0.000000e+00
3.443279e+03,0.000000e+00
3.454850e+03,0.000000e+00
3.466421e+03,0.000000e+00
3.477992e+03,0.000000e+00
3.489563e+03,0.000000e+00
3.500169e+03,0.000000e+00