File: RAMAN_data/13042023_r2/blue fibre11.CSV
9.931763e+01,0.000000e+00
1.108884e+02,0.000000e+00
1.224592e+02,0.000000e+00
1.340300e+02,0.000000e+00
1.456008e+02,0.000000e+00
1.571716e+02,0.000000e+00
1.687424e+02,0.000000e+00
1.803132e+02,0.000000e+00
1.918840e+02,0.000000e+00
2.034548e+02,1.051899e+04
2.150256e+02,1.057905e+04
2.265964e+02,1.068651e+04
2.381673e+02,1.083713e+04
2.497381e+02,1.092278e+04
2.613088e+02,1.101875e+04
2.728796e+02,1.114345e+04
2.844504e+02,1.128443e+04
2.960212e+02,1.138987e+04
3.075920e+02,1.148845e+04
3.191628e+02,1.160775e+04
3.307336e+02,1.175910e+04
3.423044e+02,1.188976e+04
3.538752e+02,1.203829e+04
3.654461e+02,1.215099e+04
3.770169e+02,1.231110e+04
3.885877e+02,1.243713e+04
4.001585e+02,1.248129e+04
4.117293e+02,1.258342e+04
4.233001e+02,1.265811e+04
4.348709e+02,1.273974e+04
4.464417e+02,1.282873e+04
4.580125e+02,1.279739e+04
4.695833e+02,1.282883e+04
4.811541e+02,1.281878e+04
4.927249e+02,1.278676e+04
5.042957e+02,1.282989e+04
5.158665e+02,1.285827e+04
5.274373e+02,1.282465e+04
5.390081e+02,1.278860e+04
5.505789e+02,1.278823e+04
5.621497e+02,1.281975e+04
5.737205e+02,1.277075e+04
5.852913e+02,1.276593e+04
5.968621e+02,1.277209e+04
6.084329e+02,1.273896e+04
6.200037e+02,1.260154e+04
6.315745e+02,1.253905e+04
6.431453e+02,1.246313e+04
6.547161e+02,1.243373e+04
6.662869e+02,1.231277e+04
6.778577e+02,1.226433e+04
6.894285e+02,1.217625e+04
7.009993e+02,1.214216e+04
7.125701e+02,1.207030e+04
7.241409e+02,1.201861e+04
7.357117e+02,1.191215e+04
7.472825e+02,1.192216e+04
7.588533e+02,1.178172e+04
7.704241e+02,1.172312e+04
7.819949e+02,1.167399e+04
7.935657e+02,1.164940e+04
8.051365e+02,1.155072e+04
8.167073e+02,1.150244e+04
8.282781e+02,1.140835e+04
8.398489e+02,1.136427e+04
8.514197e+02,1.127898e+04
8.629905e+02,1.117867e+04
8.745613e+02,1.111815e+04
8.861321e+02,1.105281e+04
8.977029e+02,1.099215e+04
9.092737e+02,1.092244e+04
9.208445e+02,1.082475e+04
9.324153e+02,1.077888e+04
9.439861e+02,1.067852e+04
9.555569e+02,1.061498e+04
9.671277e+02,1.058066e+04
9.786985e+02,1.050395e+04
9.902693e+02,1.041193e+04
1.001840e+03,1.034309e+04
1.013411e+03,1.029133e+04
1.024982e+03,1.021683e+04
1.036552e+03,1.014943e+04
1.048123e+03,1.008680e+04
1.059694e+03,1.002807e+04
1.071265e+03,9.996263e+03
1.082836e+03,9.911849e+03
1.094406e+03,9.815432e+03
1.105977e+03,9.748146e+03
1.117548e+03,9.697229e+03
1.129119e+03,9.639351e+03
1.140690e+03,9.527768e+03
1.152261e+03,9.458231e+03
1.163831e+03,9.430036e+03
1.175402e+03,9.293628e+03
1.186973e+03,9.266402e+03
1.198544e+03,9.242533e+03
1.210115e+03,9.136360e+03
1.221685e+03,9.067642e+03
1.233256e+03,9.006438e+03
1.244827e+03,8.955448e+03
1.256398e+03,8.877771e+03
1.267969e+03,8.837274e+03
1.279539e+03,8.730374e+03
1.291110e+03,8.699420e+03
1.302681e+03,8.622877e+03
1.314252e+03,8.523419e+03
1.325823e+03,8.480687e+03
1.337393e+03,8.442390e+03
1.348964e+03,8.366028e+03
1.360535e+03,8.288961e+03
1.372106e+03,8.203696e+03
1.383677e+03,8.146295e+03
1.395247e+03,8.064126e+03
1.406818e+03,7.982154e+03
1.418389e+03,7.929937e+03
1.429960e+03,7.895008e+03
1.441531e+03,7.827070e+03
1.453101e+03,7.756916e+03
1.464672e+03,7.701893e+03
1.476243e+03,7.641048e+03
1.487814e+03,7.583918e+03
1.499385e+03,7.506846e+03
1.510955e+03,7.418828e+03
1.522526e+03,7.402732e+03
1.534097e+03,7.333614e+03
1.545668e+03,7.243411e+03
1.557239e+03,7.221209e+03
1.568809e+03,7.172050e+03
1.580380e+03,7.108046e+03
1.591951e+03,7.045804e+03
1.603522e+03,6.976438e+03
1.615093e+03,6.919014e+03
1.626663e+03,6.879572e+03
1.638234e+03,6.787021e+03
1.649805e+03,6.741152e+03
1.661376e+03,6.668627e+03
1.672947e+03,6.588075e+03
1.684517e+03,6.539108e+03
1.696088e+03,6.513818e+03
1.707659e+03,6.426311e+03
1.719230e+03,6.391218e+03
1.730801e+03,6.308617e+03
1.742371e+03,6.266177e+03
1.753942e+03,6.202875e+03
1.765513e+03,6.142477e+03
1.777084e+03,6.113674e+03
1.788655e+03,6.033350e+03
1.800225e+03,5.992479e+03
1.811796e+03,5.934087e+03
1.823367e+03,5.848336e+03
1.834938e+03,5.841333e+03
1.846509e+03,5.776455e+03
1.858079e+03,5.708802e+03
1.869650e+03,5.645281e+03
1.881221e+03,5.583389e+03
1.892792e+03,5.549269e+03
1.904363e+03,5.463537e+03
1.915933e+03,5.396062e+03
1.927504e+03,5.383405e+03
1.939075e+03,5.325308e+03
1.950646e+03,5.261481e+03
1.962217e+03,5.211493e+03
1.973787e+03,5.160430e+03
1.985358e+03,5.128261e+03
1.996929e+03,5.054414e+03
2.008500e+03,4.986955e+03
2.020071e+03,4.957251e+03
2.031641e+03,4.878701e+03
2.043212e+03,4.847088e+03
2.054783e+03,4.760875e+03
2.066354e+03,4.742216e+03
2.077925e+03,4.656947e+03
2.089496e+03,4.631146e+03
2.101066e+03,4.567233e+03
2.112637e+03,4.501675e+03
2.124208e+03,4.487744e+03
2.135779e+03,4.427023e+03
2.147350e+03,4.314849e+03
2.158920e+03,4.296003e+03
2.170491e+03,4.254192e+03
2.182062e+03,4.187743e+03
2.193633e+03,4.118178e+03
2.205204e+03,4.106135e+03
2.216774e+03,4.037353e+03
2.228345e+03,3.957909e+03
2.239916e+03,3.911320e+03
2.251487e+03,3.915396e+03
2.263058e+03,3.863608e+03
2.274628e+03,3.790847e+03
2.286199e+03,3.701160e+03
2.297770e+03,3.722918e+03
2.309341e+03,3.652119e+03
2.320912e+03,3.601098e+03
2.332482e+03,3.546411e+03
2.344053e+03,3.541962e+03
2.355624e+03,3.477810e+03
2.367195e+03,3.434808e+03
2.378766e+03,3.393019e+03
2.390336e+03,3.342617e+03
2.401907e+03,3.295817e+03
2.413478e+03,3.249417e+03
2.425049e+03,3.202205e+03
2.436620e+03,3.187677e+03
2.448190e+03,3.141238e+03
2.459761e+03,3.083153e+03
2.471332e+03,3.059477e+03
2.482903e+03,3.055488e+03
2.494474e+03,3.001426e+03
2.506044e+03,2.936449e+03
2.517615e+03,2.929644e+03
2.529186e+03,2.875091e+03
2.540757e+03,2.859676e+03
2.552328e+03,2.846161e+03
2.563898e+03,2.803016e+03
2.575469e+03,2.800623e+03
2.587040e+03,2.750369e+03
2.598611e+03,2.730042e+03
2.610182e+03,2.705113e+03
2.621752e+03,2.657965e+03
2.633323e+03,2.635175e+03
2.644894e+03,2.606005e+03
2.656465e+03,2.580774e+03
2.668036e+03,2.574694e+03
2.679606e+03,2.523781e+03
2.691177e+03,2.509285e+03
2.702748e+03,2.498429e+03
2.714319e+03,2.460312e+03
2.725890e+03,2.424301e+03
2.737460e+03,2.402031e+03
2.749031e+03,2.407384e+03
2.760602e+03,2.366743e+03
2.772173e+03,2.345565e+03
2.783744e+03,2.339585e+03
2.795314e+03,2.283240e+03
2.806885e+03,2.298947e+03
2.818456e+03,2.240574e+03
2.830027e+03,2.278695e+03
2.841598e+03,2.203873e+03
2.853168e+03,2.231754e+03
2.864739e+03,2.202919e+03
2.876310e+03,2.184424e+03
2.887881e+03,2.167590e+03
2.899452e+03,2.162782e+03
2.911022e+03,2.151565e+03
2.922593e+03,2.130478e+03
2.934164e+03,2.092740e+03
2.945735e+03,2.041353e+03
2.957306e+03,2.092984e+03
2.968876e+03,2.051001e+03
2.980447e+03,2.039229e+03
2.992018e+03,2.020326e+03
3.003589e+03,1.995406e+03
3.015160e+03,2.031528e+03
3.026730e+03,1.965692e+03
3.038301e+03,1.974176e+03
3.049872e+03,1.965037e+03
3.061443e+03,1.979314e+03
3.073014e+03,1.928189e+03
3.084584e+03,1.951551e+03
3.096155e+03,1.934494e+03
3.107726e+03,1.931057e+03
3.119297e+03,1.905850e+03
3.130868e+03,1.901714e+03
3.142438e+03,1.892278e+03
3.154009e+03,1.936391e+03
3.165580e+03,1.892552e+03
3.177151e+03,1.870492e+03
3.188722e+03,1.948690e+03
3.200292e+03,1.944367e+03
3.211863e+03,0.000000e+00
3.223434e+03,0.000000e+00
3.235005e+03,0.000000e+00
3.246576e+03,0.000000e+00
3.258146e+03,0.000000e+00
3.269717e+03,0.000000e+00
3.281288e+03,0.000000e+00
3.292859e+03,0.000000e+00
3.304430e+03,0.000000e+00
3.316000e+03,0.000000e+00
3.327571e+03,0.000000e+00
3.339142e+03,0.000000e+00
3.350713e+03,0.000000e+00
3.362284e+03,0.000000e+00
3.373854e+03,0.000000e+00
3.385425e+03,0.000000e+00
3.396996e+03,0.000000e+00
3.408567e+03,0.000000e+00
3.420138e+03,0.000000e+00
3.431708e+03,0.000000e+00
3.443279e+03,0.000000e+00
3.454850e+03,0.000000e+00
3.466421e+03,0.000000e+00
3.477992e+03,0.000000e+00
3.489563e+03,0.000000e+00
3.500169e+03,0.000000e+00