File: RAMAN_data/13042023_r2/blue fibre1.CSV
9.931763e+01,0.000000e+00
1.108884e+02,0.000000e+00
1.224592e+02,0.000000e+00
1.340300e+02,0.000000e+00
1.456008e+02,0.000000e+00
1.571716e+02,0.000000e+00
1.687424e+02,0.000000e+00
1.803132e+02,0.000000e+00
1.918840e+02,0.000000e+00
2.034548e+02,6.386338e+03
2.150256e+02,6.333903e+03
2.265964e+02,6.235193e+03
2.381673e+02,6.199428e+03
2.497381e+02,6.149649e+03
2.613088e+02,6.069714e+03
2.728796e+02,5.992877e+03
2.844504e+02,5.950780e+03
2.960212e+02,5.865405e+03
3.075920e+02,5.769447e+03
3.191628e+02,5.721375e+03
3.307336e+02,5.686564e+03
3.423044e+02,5.600608e+03
3.538752e+02,5.536148e+03
3.654461e+02,5.450771e+03
3.770169e+02,5.423681e+03
3.885877e+02,5.321490e+03
4.001585e+02,5.236430e+03
4.117293e+02,5.178822e+03
4.233001e+02,5.151580e+03
4.348709e+02,5.090479e+03
4.464417e+02,5.007203e+03
4.580125e+02,4.965015e+03
4.695833e+02,4.895922e+03
4.811541e+02,4.860227e+03
4.927249e+02,4.821635e+03
5.042957e+02,4.748280e+03
5.158665e+02,4.728989e+03
5.274373e+02,4.657919e+03
5.390081e+02,4.600740e+03
5.505789e+02,4.585372e+03
5.621497e+02,4.554641e+03
5.737205e+02,4.477743e+03
5.852913e+02,4.439820e+03
5.968621e+02,4.387947e+03
6.084329e+02,4.371541e+03
6.200037e+02,4.321283e+03
6.315745e+02,4.284840e+03
6.431453e+02,4.260966e+03
6.547161e+02,4.208338e+03
6.662869e+02,4.188211e+03
6.778577e+02,4.138589e+03
6.894285e+02,4.097662e+03
7.009993e+02,4.083972e+03
7.125701e+02,4.052504e+03
7.241409e+02,4.022272e+03
7.357117e+02,3.976287e+03
7.472825e+02,3.959743e+03
7.588533e+02,3.912922e+03
7.704241e+02,3.867653e+03
7.819949e+02,3.876935e+03
7.935657e+02,3.844548e+03
8.051365e+02,3.803330e+03
8.167073e+02,3.762477e+03
8.282781e+02,3.746990e+03
8.398489e+02,3.713349e+03
8.514197e+02,3.681195e+03
8.629905e+02,3.664869e+03
8.745613e+02,3.627268e+03
8.861321e+02,3.628761e+03
8.977029e+02,3.616810e+03
9.092737e+02,3.561240e+03
9.208445e+02,3.541831e+03
9.324153e+02,3.515596e+03
9.439861e+02,3.480036e+03
9.555569e+02,3.460422e+03
9.671277e+02,3.438198e+03
9.786985e+02,3.431868e+03
9.902693e+02,3.386986e+03
1.001840e+03,3.379598e+03
1.013411e+03,3.341555e+03
1.024982e+03,3.323630e+03
1.036552e+03,3.310285e+03
1.048123e+03,3.278016e+03
1.059694e+03,3.263062e+03
1.071265e+03,3.248181e+03
1.082836e+03,3.233600e+03
1.094406e+03,3.225406e+03
1.105977e+03,3.201633e+03
1.117548e+03,3.200006e+03
1.129119e+03,3.152698e+03
1.140690e+03,3.127552e+03
1.152261e+03,3.125985e+03
1.163831e+03,3.087481e+03
1.175402e+03,3.072847e+03
1.186973e+03,3.042673e+03
1.198544e+03,3.037773e+03
1.210115e+03,3.021594e+03
1.221685e+03,2.992932e+03
1.233256e+03,2.972735e+03
1.244827e+03,2.976904e+03
1.256398e+03,2.944520e+03
1.267969e+03,2.926445e+03
1.279539e+03,2.927167e+03
1.291110e+03,2.914247e+03
1.302681e+03,2.878717e+03
1.314252e+03,2.859555e+03
1.325823e+03,2.860882e+03
1.337393e+03,2.853592e+03
1.348964e+03,2.814991e+03
1.360535e+03,2.790046e+03
1.372106e+03,2.804872e+03
1.383677e+03,2.765117e+03
1.395247e+03,2.725328e+03
1.406818e+03,2.700315e+03
1.418389e+03,2.694839e+03
1.429960e+03,2.672849e+03
1.441531e+03,2.651002e+03
1.453101e+03,2.620476e+03
1.464672e+03,2.608662e+03
1.476243e+03,2.601048e+03
1.487814e+03,2.567213e+03
1.499385e+03,2.555495e+03
1.510955e+03,2.529023e+03
1.522526e+03,2.527321e+03
1.534097e+03,2.498046e+03
1.545668e+03,2.485641e+03
1.557239e+03,2.483774e+03
1.568809e+03,2.485378e+03
1.580380e+03,2.462335e+03
1.591951e+03,2.456427e+03
1.603522e+03,2.418420e+03
1.615093e+03,2.415763e+03
1.626663e+03,2.375664e+03
1.638234e+03,2.333773e+03
1.649805e+03,2.323806e+03
1.661376e+03,2.295726e+03
1.672947e+03,2.278285e+03
1.684517e+03,2.247488e+03
1.696088e+03,2.246935e+03
1.707659e+03,2.232795e+03
1.719230e+03,2.222465e+03
1.730801e+03,2.195531e+03
1.742371e+03,2.189133e+03
1.753942e+03,2.178343e+03
1.765513e+03,2.130170e+03
1.777084e+03,2.107377e+03
1.788655e+03,2.112765e+03
1.800225e+03,2.098593e+03
1.811796e+03,2.099891e+03
1.823367e+03,2.046510e+03
1.834938e+03,2.018228e+03
1.846509e+03,2.012838e+03
1.858079e+03,2.001885e+03
1.869650e+03,1.975374e+03
1.881221e+03,1.958528e+03
1.892792e+03,1.941684e+03
1.904363e+03,1.917578e+03
1.915933e+03,1.903829e+03
1.927504e+03,1.895135e+03
1.939075e+03,1.885454e+03
1.950646e+03,1.856302e+03
1.962217e+03,1.835588e+03
1.973787e+03,1.812732e+03
1.985358e+03,1.823137e+03
1.996929e+03,1.793193e+03
2.008500e+03,1.764937e+03
2.020071e+03,1.768266e+03
2.031641e+03,1.744178e+03
2.043212e+03,1.721883e+03
2.054783e+03,1.695174e+03
2.066354e+03,1.673533e+03
2.077925e+03,1.681177e+03
2.089496e+03,1.629724e+03
2.101066e+03,1.631255e+03
2.112637e+03,1.611249e+03
2.124208e+03,1.628250e+03
2.135779e+03,1.600047e+03
2.147350e+03,1.547910e+03
2.158920e+03,1.537664e+03
2.170491e+03,1.542111e+03
2.182062e+03,1.514486e+03
2.193633e+03,1.511076e+03
2.205204e+03,1.493932e+03
2.216774e+03,1.476078e+03
2.228345e+03,1.447492e+03
2.239916e+03,1.446426e+03
2.251487e+03,1.419993e+03
2.263058e+03,1.412969e+03
2.274628e+03,1.395679e+03
2.286199e+03,1.378926e+03
2.297770e+03,1.372071e+03
2.309341e+03,1.353216e+03
2.320912e+03,1.337141e+03
2.332482e+03,1.321156e+03
2.344053e+03,1.308127e+03
2.355624e+03,1.286041e+03
2.367195e+03,1.286637e+03
2.378766e+03,1.263483e+03
2.390336e+03,1.252871e+03
2.401907e+03,1.246547e+03
2.413478e+03,1.220172e+03
2.425049e+03,1.201756e+03
2.436620e+03,1.198527e+03
2.448190e+03,1.180412e+03
2.459761e+03,1.183577e+03
2.471332e+03,1.166260e+03
2.482903e+03,1.157740e+03
2.494474e+03,1.141312e+03
2.506044e+03,1.143712e+03
2.517615e+03,1.133613e+03
2.529186e+03,1.115194e+03
2.540757e+03,1.111222e+03
2.552328e+03,1.101444e+03
2.563898e+03,1.083447e+03
2.575469e+03,1.080111e+03
2.587040e+03,1.064152e+03
2.598611e+03,1.065381e+03
2.610182e+03,1.037433e+03
2.621752e+03,1.052372e+03
2.633323e+03,1.053221e+03
2.644894e+03,1.036206e+03
2.656465e+03,1.008836e+03
2.668036e+03,1.003400e+03
2.679606e+03,1.006067e+03
2.691177e+03,9.849628e+02
2.702748e+03,1.004426e+03
2.714319e+03,9.896942e+02
2.725890e+03,9.777012e+02
2.737460e+03,9.537667e+02
2.749031e+03,9.701725e+02
2.760602e+03,9.696605e+02
2.772173e+03,9.474841e+02
2.783744e+03,9.540195e+02
2.795314e+03,9.515148e+02
2.806885e+03,9.301086e+02
2.818456e+03,9.202777e+02
2.830027e+03,9.232733e+02
2.841598e+03,9.297561e+02
2.853168e+03,9.254835e+02
2.864739e+03,9.380148e+02
2.876310e+03,9.390728e+02
2.887881e+03,9.349673e+02
2.899452e+03,9.457844e+02
2.911022e+03,9.263383e+02
2.922593e+03,9.092186e+02
2.934164e+03,9.094661e+02
2.945735e+03,9.011464e+02
2.957306e+03,9.305533e+02
2.968876e+03,8.639057e+02
2.980447e+03,8.522907e+02
2.992018e+03,8.581187e+02
3.003589e+03,8.422258e+02
3.015160e+03,8.498904e+02
3.026730e+03,8.141403e+02
3.038301e+03,8.108004e+02
3.049872e+03,8.569951e+02
3.061443e+03,8.518201e+02
3.073014e+03,8.165031e+02
3.084584e+03,8.156690e+02
3.096155e+03,8.244665e+02
3.107726e+03,8.440602e+02
3.119297e+03,8.214400e+02
3.130868e+03,8.145511e+02
3.142438e+03,8.426407e+02
3.154009e+03,8.357205e+02
3.165580e+03,8.112297e+02
3.177151e+03,7.661877e+02
3.188722e+03,8.167574e+02
3.200292e+03,8.389302e+02
3.211863e+03,0.000000e+00
3.223434e+03,0.000000e+00
3.235005e+03,0.000000e+00
3.246576e+03,0.000000e+00
3.258146e+03,0.000000e+00
3.269717e+03,0.000000e+00
3.281288e+03,0.000000e+00
3.292859e+03,0.000000e+00
3.304430e+03,0.000000e+00
3.316000e+03,0.000000e+00
3.327571e+03,0.000000e+00
3.339142e+03,0.000000e+00
3.350713e+03,0.000000e+00
3.362284e+03,0.000000e+00
3.373854e+03,0.000000e+00
3.385425e+03,0.000000e+00
3.396996e+03,0.000000e+00
3.408567e+03,0.000000e+00
3.420138e+03,0.000000e+00
3.431708e+03,0.000000e+00
3.443279e+03,0.000000e+00
3.454850e+03,0.000000e+00
3.466421e+03,0.000000e+00
3.477992e+03,0.000000e+00
3.489563e+03,0.000000e+00
3.500169e+03,0.000000e+00