File: RAMAN_data/13042023_r2/blue fibre5.CSV
9.931763e+01,0.000000e+00
1.108884e+02,0.000000e+00
1.224592e+02,0.000000e+00
1.340300e+02,0.000000e+00
1.456008e+02,0.000000e+00
1.571716e+02,0.000000e+00
1.687424e+02,0.000000e+00
1.803132e+02,0.000000e+00
1.918840e+02,0.000000e+00
2.034548e+02,4.382197e+03
2.150256e+02,4.375511e+03
2.265964e+02,4.340154e+03
2.381673e+02,4.342616e+03
2.497381e+02,4.329109e+03
2.613088e+02,4.286252e+03
2.728796e+02,4.263752e+03
2.844504e+02,4.233339e+03
2.960212e+02,4.209659e+03
3.075920e+02,4.200716e+03
3.191628e+02,4.166188e+03
3.307336e+02,4.142177e+03
3.423044e+02,4.111348e+03
3.538752e+02,4.094370e+03
3.654461e+02,4.043155e+03
3.770169e+02,4.053198e+03
3.885877e+02,3.989512e+03
4.001585e+02,3.947313e+03
4.117293e+02,3.934438e+03
4.233001e+02,3.900855e+03
4.348709e+02,3.890010e+03
4.464417e+02,3.839077e+03
4.580125e+02,3.849685e+03
4.695833e+02,3.825644e+03
4.811541e+02,3.782190e+03
4.927249e+02,3.758711e+03
5.042957e+02,3.722116e+03
5.158665e+02,3.717839e+03
5.274373e+02,3.670599e+03
5.390081e+02,3.657146e+03
5.505789e+02,3.608175e+03
5.621497e+02,3.603533e+03
5.737205e+02,3.576172e+03
5.852913e+02,3.544480e+03
5.968621e+02,3.541200e+03
6.084329e+02,3.498660e+03
6.200037e+02,3.470699e+03
6.315745e+02,3.452046e+03
6.431453e+02,3.412727e+03
6.547161e+02,3.399890e+03
6.662869e+02,3.376445e+03
6.778577e+02,3.348357e+03
6.894285e+02,3.315974e+03
7.009993e+02,3.303830e+03
7.125701e+02,3.275972e+03
7.241409e+02,3.244368e+03
7.357117e+02,3.229502e+03
7.472825e+02,3.204193e+03
7.588533e+02,3.181334e+03
7.704241e+02,3.149087e+03
7.819949e+02,3.126540e+03
7.935657e+02,3.105955e+03
8.051365e+02,3.099266e+03
8.167073e+02,3.078505e+03
8.282781e+02,3.040036e+03
8.398489e+02,3.028087e+03
8.514197e+02,2.991956e+03
8.629905e+02,2.977594e+03
8.745613e+02,2.957232e+03
8.861321e+02,2.943849e+03
8.977029e+02,2.920062e+03
9.092737e+02,2.898989e+03
9.208445e+02,2.861761e+03
9.324153e+02,2.826031e+03
9.439861e+02,2.822446e+03
9.555569e+02,2.800288e+03
9.671277e+02,2.778424e+03
9.786985e+02,2.753313e+03
9.902693e+02,2.727105e+03
1.001840e+03,2.708121e+03
1.013411e+03,2.695697e+03
1.024982e+03,2.684022e+03
1.036552e+03,2.680326e+03
1.048123e+03,2.638898e+03
1.059694e+03,2.628148e+03
1.071265e+03,2.623324e+03
1.082836e+03,2.611706e+03
1.094406e+03,2.611781e+03
1.105977e+03,2.572805e+03
1.117548e+03,2.563420e+03
1.129119e+03,2.526200e+03
1.140690e+03,2.500899e+03
1.152261e+03,2.511791e+03
1.163831e+03,2.477071e+03
1.175402e+03,2.442335e+03
1.186973e+03,2.419774e+03
1.198544e+03,2.416206e+03
1.210115e+03,2.402956e+03
1.221685e+03,2.398124e+03
1.233256e+03,2.387839e+03
1.244827e+03,2.367637e+03
1.256398e+03,2.343791e+03
1.267969e+03,2.331029e+03
1.279539e+03,2.310362e+03
1.291110e+03,2.296369e+03
1.302681e+03,2.275734e+03
1.314252e+03,2.256563e+03
1.325823e+03,2.252061e+03
1.337393e+03,2.243587e+03
1.348964e+03,2.225177e+03
1.360535e+03,2.213266e+03
1.372106e+03,2.196909e+03
1.383677e+03,2.178425e+03
1.395247e+03,2.143320e+03
1.406818e+03,2.137913e+03
1.418389e+03,2.119076e+03
1.429960e+03,2.106896e+03
1.441531e+03,2.084829e+03
1.453101e+03,2.081666e+03
1.464672e+03,2.060406e+03
1.476243e+03,2.055888e+03
1.487814e+03,2.029489e+03
1.499385e+03,2.012958e+03
1.510955e+03,1.986518e+03
1.522526e+03,1.980471e+03
1.534097e+03,1.964701e+03
1.545668e+03,1.951323e+03
1.557239e+03,1.940307e+03
1.568809e+03,1.989287e+03
1.580380e+03,1.964748e+03
1.591951e+03,1.897335e+03
1.603522e+03,1.897135e+03
1.615093e+03,1.872993e+03
1.626663e+03,1.848151e+03
1.638234e+03,1.836499e+03
1.649805e+03,1.814105e+03
1.661376e+03,1.798408e+03
1.672947e+03,1.804429e+03
1.684517e+03,1.764441e+03
1.696088e+03,1.741786e+03
1.707659e+03,1.739284e+03
1.719230e+03,1.722496e+03
1.730801e+03,1.696137e+03
1.742371e+03,1.691755e+03
1.753942e+03,1.693083e+03
1.765513e+03,1.651121e+03
1.777084e+03,1.637942e+03
1.788655e+03,1.633357e+03
1.800225e+03,1.622021e+03
1.811796e+03,1.598287e+03
1.823367e+03,1.586599e+03
1.834938e+03,1.574855e+03
1.846509e+03,1.555294e+03
1.858079e+03,1.538876e+03
1.869650e+03,1.516946e+03
1.881221e+03,1.497046e+03
1.892792e+03,1.497777e+03
1.904363e+03,1.472695e+03
1.915933e+03,1.464179e+03
1.927504e+03,1.466486e+03
1.939075e+03,1.436947e+03
1.950646e+03,1.441128e+03
1.962217e+03,1.413010e+03
1.973787e+03,1.386957e+03
1.985358e+03,1.384208e+03
1.996929e+03,1.367019e+03
2.008500e+03,1.338167e+03
2.020071e+03,1.333132e+03
2.031641e+03,1.320237e+03
2.043212e+03,1.287184e+03
2.054783e+03,1.278877e+03
2.066354e+03,1.263818e+03
2.077925e+03,1.252473e+03
2.089496e+03,1.233461e+03
2.101066e+03,1.211103e+03
2.112637e+03,1.200963e+03
2.124208e+03,1.189250e+03
2.135779e+03,1.187542e+03
2.147350e+03,1.152603e+03
2.158920e+03,1.139109e+03
2.170491e+03,1.123447e+03
2.182062e+03,1.132113e+03
2.193633e+03,1.112261e+03
2.205204e+03,1.108113e+03
2.216774e+03,1.086349e+03
2.228345e+03,1.069538e+03
2.239916e+03,1.042703e+03
2.251487e+03,1.044076e+03
2.263058e+03,1.033861e+03
2.274628e+03,1.023459e+03
2.286199e+03,1.015675e+03
2.297770e+03,9.994958e+02
2.309341e+03,9.862129e+02
2.320912e+03,9.796455e+02
2.332482e+03,9.727352e+02
2.344053e+03,9.426487e+02
2.355624e+03,9.369153e+02
2.367195e+03,9.306852e+02
2.378766e+03,9.257578e+02
2.390336e+03,9.255995e+02
2.401907e+03,9.021773e+02
2.413478e+03,8.808185e+02
2.425049e+03,8.765850e+02
2.436620e+03,8.649075e+02
2.448190e+03,8.462817e+02
2.459761e+03,8.471388e+02
2.471332e+03,8.445540e+02
2.482903e+03,8.396953e+02
2.494474e+03,8.139384e+02
2.506044e+03,8.233060e+02
2.517615e+03,8.071454e+02
2.529186e+03,8.015598e+02
2.540757e+03,7.818011e+02
2.552328e+03,7.981125e+02
2.563898e+03,7.824865e+02
2.575469e+03,7.773620e+02
2.587040e+03,7.619160e+02
2.598611e+03,7.482532e+02
2.610182e+03,7.293871e+02
2.621752e+03,7.271271e+02
2.633323e+03,7.333190e+02
2.644894e+03,7.079474e+02
2.656465e+03,7.288537e+02
2.668036e+03,7.107142e+02
2.679606e+03,6.987171e+02
2.691177e+03,6.928643e+02
2.702748e+03,6.924662e+02
2.714319e+03,6.779266e+02
2.725890e+03,6.759372e+02
2.737460e+03,6.743123e+02
2.749031e+03,6.858027e+02
2.760602e+03,6.581158e+02
2.772173e+03,6.691896e+02
2.783744e+03,6.575037e+02
2.795314e+03,6.462364e+02
2.806885e+03,6.467386e+02
2.818456e+03,6.271285e+02
2.830027e+03,6.264236e+02
2.841598e+03,6.407771e+02
2.853168e+03,6.323152e+02
2.864739e+03,6.413652e+02
2.876310e+03,6.493828e+02
2.887881e+03,6.489719e+02
2.899452e+03,6.404238e+02
2.911022e+03,6.471613e+02
2.922593e+03,6.019428e+02
2.934164e+03,6.383982e+02
2.945735e+03,6.112125e+02
2.957306e+03,6.200070e+02
2.968876e+03,6.009186e+02
2.980447e+03,5.993015e+02
2.992018e+03,5.808552e+02
3.003589e+03,5.818641e+02
3.015160e+03,5.639600e+02
3.026730e+03,5.443820e+02
3.038301e+03,5.624042e+02
3.049872e+03,5.695992e+02
3.061443e+03,5.579197e+02
3.073014e+03,5.373233e+02
3.084584e+03,5.195330e+02
3.096155e+03,5.432098e+02
3.107726e+03,5.551020e+02
3.119297e+03,5.384657e+02
3.130868e+03,5.407861e+02
3.142438e+03,5.433856e+02
3.154009e+03,5.750966e+02
3.165580e+03,5.810312e+02
3.177151e+03,5.529094e+02
3.188722e+03,5.734935e+02
3.200292e+03,5.781817e+02
3.211863e+03,0.000000e+00
3.223434e+03,0.000000e+00
3.235005e+03,0.000000e+00
3.246576e+03,0.000000e+00
3.258146e+03,0.000000e+00
3.269717e+03,0.000000e+00
3.281288e+03,0.000000e+00
3.292859e+03,0.000000e+00
3.304430e+03,0.000000e+00
3.316000e+03,0.000000e+00
3.327571e+03,0.000000e+00
3.339142e+03,0.000000e+00
3.350713e+03,0.000000e+00
3.362284e+03,0.000000e+00
3.373854e+03,0.000000e+00
3.385425e+03,0.000000e+00
3.396996e+03,0.000000e+00
3.408567e+03,0.000000e+00
3.420138e+03,0.000000e+00
3.431708e+03,0.000000e+00
3.443279e+03,0.000000e+00
3.454850e+03,0.000000e+00
3.466421e+03,0.000000e+00
3.477992e+03,0.000000e+00
3.489563e+03,0.000000e+00
3.500169e+03,0.000000e+00