File: RAMAN_data/13042023_r2/blue fibre2.CSV
9.931763e+01,0.000000e+00
1.108884e+02,0.000000e+00
1.224592e+02,0.000000e+00
1.340300e+02,0.000000e+00
1.456008e+02,0.000000e+00
1.571716e+02,0.000000e+00
1.687424e+02,0.000000e+00
1.803132e+02,0.000000e+00
1.918840e+02,0.000000e+00
2.034548e+02,3.857372e+03
2.150256e+02,3.828599e+03
2.265964e+02,3.816948e+03
2.381673e+02,3.799034e+03
2.497381e+02,3.779051e+03
2.613088e+02,3.742046e+03
2.728796e+02,3.717720e+03
2.844504e+02,3.684576e+03
2.960212e+02,3.677028e+03
3.075920e+02,3.638407e+03
3.191628e+02,3.621271e+03
3.307336e+02,3.601433e+03
3.423044e+02,3.552965e+03
3.538752e+02,3.535053e+03
3.654461e+02,3.519310e+03
3.770169e+02,3.494730e+03
3.885877e+02,3.461688e+03
4.001585e+02,3.419083e+03
4.117293e+02,3.415740e+03
4.233001e+02,3.378187e+03
4.348709e+02,3.370075e+03
4.464417e+02,3.331513e+03
4.580125e+02,3.306462e+03
4.695833e+02,3.283156e+03
4.811541e+02,3.268758e+03
4.927249e+02,3.258285e+03
5.042957e+02,3.213547e+03
5.158665e+02,3.204191e+03
5.274373e+02,3.182499e+03
5.390081e+02,3.135302e+03
5.505789e+02,3.119873e+03
5.621497e+02,3.117337e+03
5.737205e+02,3.091434e+03
5.852913e+02,3.072621e+03
5.968621e+02,3.048970e+03
6.084329e+02,3.028222e+03
6.200037e+02,3.008023e+03
6.315745e+02,2.990909e+03
6.431453e+02,2.962207e+03
6.547161e+02,2.937957e+03
6.662869e+02,2.944055e+03
6.778577e+02,2.904923e+03
6.894285e+02,2.892496e+03
7.009993e+02,2.877388e+03
7.125701e+02,2.848996e+03
7.241409e+02,2.839008e+03
7.357117e+02,2.819744e+03
7.472825e+02,2.805817e+03
7.588533e+02,2.780294e+03
7.704241e+02,2.760129e+03
7.819949e+02,2.765257e+03
7.935657e+02,2.740448e+03
8.051365e+02,2.719093e+03
8.167073e+02,2.690779e+03
8.282781e+02,2.700499e+03
8.398489e+02,2.654192e+03
8.514197e+02,2.656665e+03
8.629905e+02,2.641315e+03
8.745613e+02,2.598865e+03
8.861321e+02,2.632877e+03
8.977029e+02,2.584953e+03
9.092737e+02,2.565191e+03
9.208445e+02,2.553574e+03
9.324153e+02,2.523613e+03
9.439861e+02,2.513867e+03
9.555569e+02,2.492605e+03
9.671277e+02,2.491911e+03
9.786985e+02,2.475357e+03
9.902693e+02,2.450380e+03
1.001840e+03,2.432601e+03
1.013411e+03,2.428984e+03
1.024982e+03,2.413980e+03
1.036552e+03,2.406136e+03
1.048123e+03,2.376729e+03
1.059694e+03,2.374668e+03
1.071265e+03,2.365511e+03
1.082836e+03,2.355795e+03
1.094406e+03,2.352628e+03
1.105977e+03,2.325747e+03
1.117548e+03,2.323032e+03
1.129119e+03,2.294948e+03
1.140690e+03,2.292161e+03
1.152261e+03,2.287815e+03
1.163831e+03,2.277678e+03
1.175402e+03,2.257482e+03
1.186973e+03,2.240394e+03
1.198544e+03,2.231001e+03
1.210115e+03,2.214118e+03
1.221685e+03,2.199801e+03
1.233256e+03,2.192772e+03
1.244827e+03,2.176255e+03
1.256398e+03,2.183470e+03
1.267969e+03,2.146376e+03
1.279539e+03,2.168265e+03
1.291110e+03,2.141538e+03
1.302681e+03,2.136157e+03
1.314252e+03,2.097461e+03
1.325823e+03,2.105935e+03
1.337393e+03,2.107505e+03
1.348964e+03,2.089163e+03
1.360535e+03,2.051378e+03
1.372106e+03,2.055495e+03
1.383677e+03,2.034512e+03
1.395247e+03,2.025164e+03
1.406818e+03,2.007362e+03
1.418389e+03,2.005079e+03
1.429960e+03,1.979004e+03
1.441531e+03,1.964170e+03
1.453101e+03,1.957653e+03
1.464672e+03,1.944978e+03
1.476243e+03,1.920831e+03
1.487814e+03,1.922504e+03
1.499385e+03,1.897451e+03
1.510955e+03,1.886335e+03
1.522526e+03,1.884766e+03
1.534097e+03,1.870446e+03
1.545668e+03,1.857345e+03
1.557239e+03,1.843794e+03
1.568809e+03,1.834382e+03
1.580380e+03,1.842694e+03
1.591951e+03,1.809621e+03
1.603522e+03,1.821086e+03
1.615093e+03,1.798446e+03
1.626663e+03,1.772491e+03
1.638234e+03,1.767072e+03
1.649805e+03,1.748045e+03
1.661376e+03,1.727918e+03
1.672947e+03,1.713374e+03
1.684517e+03,1.695349e+03
1.696088e+03,1.688909e+03
1.707659e+03,1.685847e+03
1.719230e+03,1.653758e+03
1.730801e+03,1.645267e+03
1.742371e+03,1.652289e+03
1.753942e+03,1.631443e+03
1.765513e+03,1.619201e+03
1.777084e+03,1.608824e+03
1.788655e+03,1.587031e+03
1.800225e+03,1.584043e+03
1.811796e+03,1.559699e+03
1.823367e+03,1.557032e+03
1.834938e+03,1.551819e+03
1.846509e+03,1.519206e+03
1.858079e+03,1.519790e+03
1.869650e+03,1.519340e+03
1.881221e+03,1.481155e+03
1.892792e+03,1.485156e+03
1.904363e+03,1.470489e+03
1.915933e+03,1.439733e+03
1.927504e+03,1.443714e+03
1.939075e+03,1.431051e+03
1.950646e+03,1.413429e+03
1.962217e+03,1.399701e+03
1.973787e+03,1.392641e+03
1.985358e+03,1.363352e+03
1.996929e+03,1.376023e+03
2.008500e+03,1.355037e+03
2.020071e+03,1.336711e+03
2.031641e+03,1.326697e+03
2.043212e+03,1.298319e+03
2.054783e+03,1.309511e+03
2.066354e+03,1.289823e+03
2.077925e+03,1.272846e+03
2.089496e+03,1.259105e+03
2.101066e+03,1.248881e+03
2.112637e+03,1.227310e+03
2.124208e+03,1.230602e+03
2.135779e+03,1.204531e+03
2.147350e+03,1.182272e+03
2.158920e+03,1.187464e+03
2.170491e+03,1.177037e+03
2.182062e+03,1.171449e+03
2.193633e+03,1.155314e+03
2.205204e+03,1.149859e+03
2.216774e+03,1.123201e+03
2.228345e+03,1.111721e+03
2.239916e+03,1.103960e+03
2.251487e+03,1.094807e+03
2.263058e+03,1.067220e+03
2.274628e+03,1.074232e+03
2.286199e+03,1.066752e+03
2.297770e+03,1.046502e+03
2.309341e+03,1.035778e+03
2.320912e+03,1.021565e+03
2.332482e+03,1.011242e+03
2.344053e+03,1.007361e+03
2.355624e+03,1.005201e+03
2.367195e+03,9.999649e+02
2.378766e+03,9.718564e+02
2.390336e+03,9.665140e+02
2.401907e+03,9.611969e+02
2.413478e+03,9.416033e+02
2.425049e+03,9.267058e+02
2.436620e+03,9.313636e+02
2.448190e+03,9.205818e+02
2.459761e+03,9.054402e+02
2.471332e+03,9.057957e+02
2.482903e+03,9.033824e+02
2.494474e+03,8.689941e+02
2.506044e+03,8.684379e+02
2.517615e+03,8.602375e+02
2.529186e+03,8.443287e+02
2.540757e+03,8.515012e+02
2.552328e+03,8.460018e+02
2.563898e+03,8.493411e+02
2.575469e+03,8.407939e+02
2.587040e+03,8.295470e+02
2.598611e+03,8.090228e+02
2.610182e+03,8.153186e+02
2.621752e+03,7.958443e+02
2.633323e+03,7.966150e+02
2.644894e+03,7.763577e+02
2.656465e+03,7.952751e+02
2.668036e+03,7.862326e+02
2.679606e+03,7.813543e+02
2.691177e+03,7.741292e+02
2.702748e+03,7.638244e+02
2.714319e+03,7.624995e+02
2.725890e+03,7.455838e+02
2.737460e+03,7.509879e+02
2.749031e+03,7.470817e+02
2.760602e+03,7.371736e+02
2.772173e+03,7.358754e+02
2.783744e+03,7.310132e+02
2.795314e+03,7.273766e+02
2.806885e+03,7.162460e+02
2.818456e+03,7.201596e+02
2.830027e+03,7.051444e+02
2.841598e+03,7.137661e+02
2.853168e+03,6.977718e+02
2.864739e+03,7.147117e+02
2.876310e+03,7.049041e+02
2.887881e+03,7.129005e+02
2.899452e+03,7.071705e+02
2.911022e+03,7.063788e+02
2.922593e+03,6.814101e+02
2.934164e+03,6.628718e+02
2.945735e+03,6.756193e+02
2.957306e+03,6.836563e+02
2.968876e+03,6.704992e+02
2.980447e+03,6.485322e+02
2.992018e+03,6.583412e+02
3.003589e+03,6.467904e+02
3.015160e+03,6.362660e+02
3.026730e+03,6.526349e+02
3.038301e+03,6.436248e+02
3.049872e+03,6.331703e+02
3.061443e+03,6.441114e+02
3.073014e+03,6.389554e+02
3.084584e+03,6.386393e+02
3.096155e+03,6.037328e+02
3.107726e+03,6.453741e+02
3.119297e+03,6.204921e+02
3.130868e+03,6.302250e+02
3.142438e+03,6.215602e+02
3.154009e+03,6.431716e+02
3.165580e+03,6.228021e+02
3.177151e+03,6.383156e+02
3.188722e+03,5.947490e+02
3.200292e+03,6.535218e+02
3.211863e+03,0.000000e+00
3.223434e+03,0.000000e+00
3.235005e+03,0.000000e+00
3.246576e+03,0.000000e+00
3.258146e+03,0.000000e+00
3.269717e+03,0.000000e+00
3.281288e+03,0.000000e+00
3.292859e+03,0.000000e+00
3.304430e+03,0.000000e+00
3.316000e+03,0.000000e+00
3.327571e+03,0.000000e+00
3.339142e+03,0.000000e+00
3.350713e+03,0.000000e+00
3.362284e+03,0.000000e+00
3.373854e+03,0.000000e+00
3.385425e+03,0.000000e+00
3.396996e+03,0.000000e+00
3.408567e+03,0.000000e+00
3.420138e+03,0.000000e+00
3.431708e+03,0.000000e+00
3.443279e+03,0.000000e+00
3.454850e+03,0.000000e+00
3.466421e+03,0.000000e+00
3.477992e+03,0.000000e+00
3.489563e+03,0.000000e+00
3.500169e+03,0.000000e+00