File: RAMAN_data/13042023_r2/blue fibre12.CSV
9.931763e+01,0.000000e+00
1.108884e+02,0.000000e+00
1.224592e+02,0.000000e+00
1.340300e+02,0.000000e+00
1.456008e+02,0.000000e+00
1.571716e+02,0.000000e+00
1.687424e+02,0.000000e+00
1.803132e+02,0.000000e+00
1.918840e+02,0.000000e+00
2.034548e+02,1.051899e+04
2.150256e+02,1.057905e+04
2.265964e+02,1.068651e+04
2.381673e+02,1.083713e+04
2.497381e+02,1.092278e+04
2.613088e+02,1.101875e+04
2.728796e+02,1.114345e+04
2.844504e+02,1.128443e+04
2.960212e+02,1.138987e+04
3.075920e+02,1.148845e+04
3.191628e+02,1.160775e+04
3.307336e+02,1.175910e+04
3.423044e+02,1.188976e+04
3.538752e+02,1.203829e+04
3.654461e+02,1.215099e+04
3.770169e+02,1.231110e+04
3.885877e+02,1.246675e+04
4.001585e+02,1.254000e+04
4.117293e+02,1.261078e+04
4.233001e+02,1.270100e+04
4.348709e+02,1.275990e+04
4.464417e+02,1.274586e+04
4.580125e+02,1.276647e+04
4.695833e+02,1.275715e+04
4.811541e+02,1.274436e+04
4.927249e+02,1.273043e+04
5.042957e+02,1.276301e+04
5.158665e+02,1.270803e+04
5.274373e+02,1.262169e+04
5.390081e+02,1.254983e+04
5.505789e+02,1.244959e+04
5.621497e+02,1.246578e+04
5.737205e+02,1.232784e+04
5.852913e+02,1.220323e+04
5.968621e+02,1.218411e+04
6.084329e+02,1.215493e+04
6.200037e+02,1.205285e+04
6.315745e+02,1.198095e+04
6.431453e+02,1.188767e+04
6.547161e+02,1.181464e+04
6.662869e+02,1.170725e+04
6.778577e+02,1.167722e+04
6.894285e+02,1.159912e+04
7.009993e+02,1.157050e+04
7.125701e+02,1.150817e+04
7.241409e+02,1.141017e+04
7.357117e+02,1.133245e+04
7.472825e+02,1.133564e+04
7.588533e+02,1.121712e+04
7.704241e+02,1.117519e+04
7.819949e+02,1.108589e+04
7.935657e+02,1.104907e+04
8.051365e+02,1.098020e+04
8.167073e+02,1.091713e+04
8.282781e+02,1.087495e+04
8.398489e+02,1.084660e+04
8.514197e+02,1.074804e+04
8.629905e+02,1.071696e+04
8.745613e+02,1.064412e+04
8.861321e+02,1.063315e+04
8.977029e+02,1.055223e+04
9.092737e+02,1.047139e+04
9.208445e+02,1.041532e+04
9.324153e+02,1.037865e+04
9.439861e+02,1.031851e+04
9.555569e+02,1.023977e+04
9.671277e+02,1.018594e+04
9.786985e+02,1.013784e+04
9.902693e+02,1.005247e+04
1.001840e+03,9.986373e+03
1.013411e+03,9.963330e+03
1.024982e+03,9.934479e+03
1.036552e+03,9.880291e+03
1.048123e+03,9.838365e+03
1.059694e+03,9.791163e+03
1.071265e+03,9.794501e+03
1.082836e+03,9.744966e+03
1.094406e+03,9.687043e+03
1.105977e+03,9.650237e+03
1.117548e+03,9.656004e+03
1.129119e+03,9.614047e+03
1.140690e+03,9.562950e+03
1.152261e+03,9.551386e+03
1.163831e+03,9.476802e+03
1.175402e+03,9.411799e+03
1.186973e+03,9.395676e+03
1.198544e+03,9.403252e+03
1.210115e+03,9.342395e+03
1.221685e+03,9.304468e+03
1.233256e+03,9.265845e+03
1.244827e+03,9.255638e+03
1.256398e+03,9.220224e+03
1.267969e+03,9.177559e+03
1.279539e+03,9.172189e+03
1.291110e+03,9.124179e+03
1.302681e+03,9.079372e+03
1.314252e+03,9.035841e+03
1.325823e+03,8.974019e+03
1.337393e+03,9.042938e+03
1.348964e+03,8.942694e+03
1.360535e+03,8.887694e+03
1.372106e+03,8.835436e+03
1.383677e+03,8.813364e+03
1.395247e+03,8.730149e+03
1.406818e+03,8.680109e+03
1.418389e+03,8.679879e+03
1.429960e+03,8.629624e+03
1.441531e+03,8.524038e+03
1.453101e+03,8.512238e+03
1.464672e+03,8.440042e+03
1.476243e+03,8.433860e+03
1.487814e+03,8.392511e+03
1.499385e+03,8.316961e+03
1.510955e+03,8.255031e+03
1.522526e+03,8.268545e+03
1.534097e+03,8.173681e+03
1.545668e+03,8.163607e+03
1.557239e+03,8.112760e+03
1.568809e+03,8.129494e+03
1.580380e+03,8.083661e+03
1.591951e+03,8.050408e+03
1.603522e+03,8.001748e+03
1.615093e+03,7.943879e+03
1.626663e+03,7.833548e+03
1.638234e+03,7.772572e+03
1.649805e+03,7.728690e+03
1.661376e+03,7.647241e+03
1.672947e+03,7.611234e+03
1.684517e+03,7.527872e+03
1.696088e+03,7.510069e+03
1.707659e+03,7.441445e+03
1.719230e+03,7.382795e+03
1.730801e+03,7.320639e+03
1.742371e+03,7.292910e+03
1.753942e+03,7.226794e+03
1.765513e+03,7.197726e+03
1.777084e+03,7.110896e+03
1.788655e+03,7.043880e+03
1.800225e+03,7.022434e+03
1.811796e+03,6.955691e+03
1.823367e+03,6.894132e+03
1.834938e+03,6.840495e+03
1.846509e+03,6.795319e+03
1.858079e+03,6.744306e+03
1.869650e+03,6.654017e+03
1.881221e+03,6.596031e+03
1.892792e+03,6.574486e+03
1.904363e+03,6.504532e+03
1.915933e+03,6.474522e+03
1.927504e+03,6.415235e+03
1.939075e+03,6.335135e+03
1.950646e+03,6.282538e+03
1.962217e+03,6.249755e+03
1.973787e+03,6.175613e+03
1.985358e+03,6.144766e+03
1.996929e+03,6.120247e+03
2.008500e+03,6.015956e+03
2.020071e+03,5.981678e+03
2.031641e+03,5.926782e+03
2.043212e+03,5.875911e+03
2.054783e+03,5.828556e+03
2.066354e+03,5.764386e+03
2.077925e+03,5.712978e+03
2.089496e+03,5.662607e+03
2.101066e+03,5.560926e+03
2.112637e+03,5.573043e+03
2.124208e+03,5.517854e+03
2.135779e+03,5.404458e+03
2.147350e+03,5.371434e+03
2.158920e+03,5.334774e+03
2.170491e+03,5.311729e+03
2.182062e+03,5.253570e+03
2.193633e+03,5.204939e+03
2.205204e+03,5.172635e+03
2.216774e+03,5.136447e+03
2.228345e+03,5.031237e+03
2.239916e+03,4.983656e+03
2.251487e+03,4.940081e+03
2.263058e+03,4.887455e+03
2.274628e+03,4.831906e+03
2.286199e+03,4.783443e+03
2.297770e+03,4.780988e+03
2.309341e+03,4.711272e+03
2.320912e+03,4.640723e+03
2.332482e+03,4.617428e+03
2.344053e+03,4.580490e+03
2.355624e+03,4.528891e+03
2.367195e+03,4.465251e+03
2.378766e+03,4.426751e+03
2.390336e+03,4.377995e+03
2.401907e+03,4.353391e+03
2.413478e+03,4.318899e+03
2.425049e+03,4.287315e+03
2.436620e+03,4.230685e+03
2.448190e+03,4.199071e+03
2.459761e+03,4.122971e+03
2.471332e+03,4.119538e+03
2.482903e+03,4.098000e+03
2.494474e+03,4.048563e+03
2.506044e+03,3.965571e+03
2.517615e+03,3.980613e+03
2.529186e+03,3.949539e+03
2.540757e+03,3.929601e+03
2.552328e+03,3.897355e+03
2.563898e+03,3.872530e+03
2.575469e+03,3.845745e+03
2.587040e+03,3.807133e+03
2.598611e+03,3.774993e+03
2.610182e+03,3.748061e+03
2.621752e+03,3.692512e+03
2.633323e+03,3.664469e+03
2.644894e+03,3.650609e+03
2.656465e+03,3.623052e+03
2.668036e+03,3.603015e+03
2.679606e+03,3.567573e+03
2.691177e+03,3.556908e+03
2.702748e+03,3.512990e+03
2.714319e+03,3.480968e+03
2.725890e+03,3.472504e+03
2.737460e+03,3.416533e+03
2.749031e+03,3.410663e+03
2.760602e+03,3.406559e+03
2.772173e+03,3.351159e+03
2.783744e+03,3.354433e+03
2.795314e+03,3.302988e+03
2.806885e+03,3.292080e+03
2.818456e+03,3.247866e+03
2.830027e+03,3.213487e+03
2.841598e+03,3.209891e+03
2.853168e+03,3.230686e+03
2.864739e+03,3.237032e+03
2.876310e+03,3.153610e+03
2.887881e+03,3.228638e+03
2.899452e+03,3.141112e+03
2.911022e+03,3.124747e+03
2.922593e+03,3.075971e+03
2.934164e+03,3.103482e+03
2.945735e+03,3.032277e+03
2.957306e+03,3.024850e+03
2.968876e+03,3.064680e+03
2.980447e+03,2.986499e+03
2.992018e+03,2.906384e+03
3.003589e+03,2.946356e+03
3.015160e+03,2.928278e+03
3.026730e+03,2.911948e+03
3.038301e+03,2.899535e+03
3.049872e+03,2.868717e+03
3.061443e+03,2.854072e+03
3.073014e+03,2.860250e+03
3.084584e+03,2.795775e+03
3.096155e+03,2.856961e+03
3.107726e+03,2.743909e+03
3.119297e+03,2.813408e+03
3.130868e+03,2.816818e+03
3.142438e+03,2.859828e+03
3.154009e+03,2.807722e+03
3.165580e+03,2.771261e+03
3.177151e+03,2.764329e+03
3.188722e+03,2.817924e+03
3.200292e+03,2.791747e+03
3.211863e+03,0.000000e+00
3.223434e+03,0.000000e+00
3.235005e+03,0.000000e+00
3.246576e+03,0.000000e+00
3.258146e+03,0.000000e+00
3.269717e+03,0.000000e+00
3.281288e+03,0.000000e+00
3.292859e+03,0.000000e+00
3.304430e+03,0.000000e+00
3.316000e+03,0.000000e+00
3.327571e+03,0.000000e+00
3.339142e+03,0.000000e+00
3.350713e+03,0.000000e+00
3.362284e+03,0.000000e+00
3.373854e+03,0.000000e+00
3.385425e+03,0.000000e+00
3.396996e+03,0.000000e+00
3.408567e+03,0.000000e+00
3.420138e+03,0.000000e+00
3.431708e+03,0.000000e+00
3.443279e+03,0.000000e+00
3.454850e+03,0.000000e+00
3.466421e+03,0.000000e+00
3.477992e+03,0.000000e+00
3.489563e+03,0.000000e+00
3.500169e+03,0.000000e+00