File: RAMAN_data/19072023_r3/black fibre2.CSV
9.931763e+01,0.000000e+00
1.108884e+02,0.000000e+00
1.224592e+02,0.000000e+00
1.340300e+02,0.000000e+00
1.456008e+02,0.000000e+00
1.571716e+02,0.000000e+00
1.687424e+02,0.000000e+00
1.803132e+02,0.000000e+00
1.918840e+02,0.000000e+00
2.034548e+02,3.493247e+03
2.150256e+02,3.487481e+03
2.265964e+02,3.483477e+03
2.381673e+02,3.513820e+03
2.497381e+02,3.511306e+03
2.613088e+02,3.494558e+03
2.728796e+02,3.490435e+03
2.844504e+02,3.510570e+03
2.960212e+02,3.537357e+03
3.075920e+02,3.560016e+03
3.191628e+02,3.559661e+03
3.307336e+02,3.551943e+03
3.423044e+02,3.547031e+03
3.538752e+02,3.525112e+03
3.654461e+02,3.528198e+03
3.770169e+02,3.544117e+03
3.885877e+02,3.486153e+03
4.001585e+02,3.472210e+03
4.117293e+02,3.455824e+03
4.233001e+02,3.464476e+03
4.348709e+02,3.487525e+03
4.464417e+02,3.487048e+03
4.580125e+02,3.470632e+03
4.695833e+02,3.458910e+03
4.811541e+02,3.446835e+03
4.927249e+02,3.444001e+03
5.042957e+02,3.423246e+03
5.158665e+02,3.419848e+03
5.274373e+02,3.358200e+03
5.390081e+02,3.322972e+03
5.505789e+02,3.318156e+03
5.621497e+02,3.311134e+03
5.737205e+02,3.315691e+03
5.852913e+02,3.321523e+03
5.968621e+02,3.299292e+03
6.084329e+02,3.294508e+03
6.200037e+02,3.262621e+03
6.315745e+02,3.268017e+03
6.431453e+02,3.226761e+03
6.547161e+02,3.201967e+03
6.662869e+02,3.156258e+03
6.778577e+02,3.125635e+03
6.894285e+02,3.125149e+03
7.009993e+02,3.118988e+03
7.125701e+02,3.124726e+03
7.241409e+02,3.115566e+03
7.357117e+02,3.095491e+03
7.472825e+02,3.081048e+03
7.588533e+02,3.056977e+03
7.704241e+02,3.036210e+03
7.819949e+02,3.009042e+03
7.935657e+02,2.991017e+03
8.051365e+02,2.947915e+03
8.167073e+02,2.936234e+03
8.282781e+02,2.892782e+03
8.398489e+02,2.888667e+03
8.514197e+02,2.886031e+03
8.629905e+02,2.880876e+03
8.745613e+02,2.849438e+03
8.861321e+02,2.838650e+03
8.977029e+02,2.813679e+03
9.092737e+02,2.791857e+03
9.208445e+02,2.755707e+03
9.324153e+02,2.755997e+03
9.439861e+02,2.728511e+03
9.555569e+02,2.708615e+03
9.671277e+02,2.705344e+03
9.786985e+02,2.676396e+03
9.902693e+02,2.646272e+03
1.001840e+03,2.611621e+03
1.013411e+03,2.618786e+03
1.024982e+03,2.596347e+03
1.036552e+03,2.601299e+03
1.048123e+03,2.565476e+03
1.059694e+03,2.574612e+03
1.071265e+03,2.582423e+03
1.082836e+03,2.555894e+03
1.094406e+03,2.546988e+03
1.105977e+03,2.523659e+03
1.117548e+03,2.526647e+03
1.129119e+03,2.476042e+03
1.140690e+03,2.495339e+03
1.152261e+03,2.503345e+03
1.163831e+03,2.495064e+03
1.175402e+03,2.442851e+03
1.186973e+03,2.416534e+03
1.198544e+03,2.418706e+03
1.210115e+03,2.399574e+03
1.221685e+03,2.385776e+03
1.233256e+03,2.353491e+03
1.244827e+03,2.356325e+03
1.256398e+03,2.325343e+03
1.267969e+03,2.313835e+03
1.279539e+03,2.314307e+03
1.291110e+03,2.312433e+03
1.302681e+03,2.315677e+03
1.314252e+03,2.337988e+03
1.325823e+03,2.329563e+03
1.337393e+03,2.298219e+03
1.348964e+03,2.282299e+03
1.360535e+03,2.275252e+03
1.372106e+03,2.250030e+03
1.383677e+03,2.230725e+03
1.395247e+03,2.183164e+03
1.406818e+03,2.162114e+03
1.418389e+03,2.153955e+03
1.429960e+03,2.146077e+03
1.441531e+03,2.136714e+03
1.453101e+03,2.125740e+03
1.464672e+03,2.101702e+03
1.476243e+03,2.082692e+03
1.487814e+03,2.093451e+03
1.499385e+03,2.092617e+03
1.510955e+03,2.085447e+03
1.522526e+03,2.059947e+03
1.534097e+03,2.027043e+03
1.545668e+03,2.010714e+03
1.557239e+03,1.998740e+03
1.568809e+03,2.005324e+03
1.580380e+03,2.029834e+03
1.591951e+03,1.994077e+03
1.603522e+03,1.973746e+03
1.615093e+03,1.997403e+03
1.626663e+03,1.948693e+03
1.638234e+03,1.937991e+03
1.649805e+03,1.900505e+03
1.661376e+03,1.873733e+03
1.672947e+03,1.859734e+03
1.684517e+03,1.832336e+03
1.696088e+03,1.821972e+03
1.707659e+03,1.824811e+03
1.719230e+03,1.834703e+03
1.730801e+03,1.820503e+03
1.742371e+03,1.785224e+03
1.753942e+03,1.769131e+03
1.765513e+03,1.762278e+03
1.777084e+03,1.734706e+03
1.788655e+03,1.696644e+03
1.800225e+03,1.695999e+03
1.811796e+03,1.702526e+03
1.823367e+03,1.670516e+03
1.834938e+03,1.657857e+03
1.846509e+03,1.637518e+03
1.858079e+03,1.618659e+03
1.869650e+03,1.608434e+03
1.881221e+03,1.614847e+03
1.892792e+03,1.580013e+03
1.904363e+03,1.568710e+03
1.915933e+03,1.560362e+03
1.927504e+03,1.529170e+03
1.939075e+03,1.515047e+03
1.950646e+03,1.495064e+03
1.962217e+03,1.483968e+03
1.973787e+03,1.481436e+03
1.985358e+03,1.459678e+03
1.996929e+03,1.467607e+03
2.008500e+03,1.435519e+03
2.020071e+03,1.416708e+03
2.031641e+03,1.419589e+03
2.043212e+03,1.385654e+03
2.054783e+03,1.350731e+03
2.066354e+03,1.367963e+03
2.077925e+03,1.328805e+03
2.089496e+03,1.316124e+03
2.101066e+03,1.300189e+03
2.112637e+03,1.309477e+03
2.124208e+03,1.287590e+03
2.135779e+03,1.263888e+03
2.147350e+03,1.248794e+03
2.158920e+03,1.241317e+03
2.170491e+03,1.227240e+03
2.182062e+03,1.214433e+03
2.193633e+03,1.184074e+03
2.205204e+03,1.182351e+03
2.216774e+03,1.161432e+03
2.228345e+03,1.135451e+03
2.239916e+03,1.120369e+03
2.251487e+03,1.145154e+03
2.263058e+03,1.105470e+03
2.274628e+03,1.116529e+03
2.286199e+03,1.091783e+03
2.297770e+03,1.079151e+03
2.309341e+03,1.061377e+03
2.320912e+03,1.045697e+03
2.332482e+03,1.016737e+03
2.344053e+03,1.015874e+03
2.355624e+03,1.012476e+03
2.367195e+03,9.790129e+02
2.378766e+03,9.902297e+02
2.390336e+03,9.579915e+02
2.401907e+03,9.764787e+02
2.413478e+03,9.621237e+02
2.425049e+03,9.559952e+02
2.436620e+03,9.485616e+02
2.448190e+03,9.282944e+02
2.459761e+03,9.052916e+02
2.471332e+03,9.059611e+02
2.482903e+03,8.856155e+02
2.494474e+03,8.863873e+02
2.506044e+03,8.639375e+02
2.517615e+03,8.531116e+02
2.529186e+03,8.448082e+02
2.540757e+03,8.525372e+02
2.552328e+03,8.492816e+02
2.563898e+03,8.658868e+02
2.575469e+03,8.486129e+02
2.587040e+03,8.310524e+02
2.598611e+03,8.024678e+02
2.610182e+03,8.038839e+02
2.621752e+03,7.990387e+02
2.633323e+03,7.885862e+02
2.644894e+03,7.810929e+02
2.656465e+03,7.733182e+02
2.668036e+03,7.718887e+02
2.679606e+03,7.689879e+02
2.691177e+03,7.587714e+02
2.702748e+03,7.473167e+02
2.714319e+03,7.465588e+02
2.725890e+03,7.459481e+02
2.737460e+03,7.300954e+02
2.749031e+03,7.283766e+02
2.760602e+03,7.116234e+02
2.772173e+03,7.145533e+02
2.783744e+03,6.909731e+02
2.795314e+03,7.139525e+02
2.806885e+03,7.029192e+02
2.818456e+03,6.858153e+02
2.830027e+03,6.980017e+02
2.841598e+03,6.708640e+02
2.853168e+03,6.735172e+02
2.864739e+03,6.744282e+02
2.876310e+03,6.831231e+02
2.887881e+03,6.966025e+02
2.899452e+03,6.797581e+02
2.911022e+03,6.645105e+02
2.922593e+03,6.690975e+02
2.934164e+03,6.620257e+02
2.945735e+03,6.366805e+02
2.957306e+03,6.728150e+02
2.968876e+03,6.341101e+02
2.980447e+03,6.265170e+02
2.992018e+03,6.213643e+02
3.003589e+03,6.049889e+02
3.015160e+03,6.018802e+02
3.026730e+03,6.053875e+02
3.038301e+03,6.182040e+02
3.049872e+03,6.083755e+02
3.061443e+03,6.174637e+02
3.073014e+03,6.037148e+02
3.084584e+03,5.957314e+02
3.096155e+03,6.034119e+02
3.107726e+03,6.116894e+02
3.119297e+03,6.048149e+02
3.130868e+03,5.903873e+02
3.142438e+03,6.210717e+02
3.154009e+03,6.079479e+02
3.165580e+03,6.153138e+02
3.177151e+03,6.192181e+02
3.188722e+03,5.707468e+02
3.200292e+03,6.357150e+02
3.211863e+03,0.000000e+00
3.223434e+03,0.000000e+00
3.235005e+03,0.000000e+00
3.246576e+03,0.000000e+00
3.258146e+03,0.000000e+00
3.269717e+03,0.000000e+00
3.281288e+03,0.000000e+00
3.292859e+03,0.000000e+00
3.304430e+03,0.000000e+00
3.316000e+03,0.000000e+00
3.327571e+03,0.000000e+00
3.339142e+03,0.000000e+00
3.350713e+03,0.000000e+00
3.362284e+03,0.000000e+00
3.373854e+03,0.000000e+00
3.385425e+03,0.000000e+00
3.396996e+03,0.000000e+00
3.408567e+03,0.000000e+00
3.420138e+03,0.000000e+00
3.431708e+03,0.000000e+00
3.443279e+03,0.000000e+00
3.454850e+03,0.000000e+00
3.466421e+03,0.000000e+00
3.477992e+03,0.000000e+00
3.489563e+03,0.000000e+00
3.500169e+03,0.000000e+00