File: RAMAN_data/19072023_r3/black fibre3.CSV
9.931763e+01,0.000000e+00
1.108884e+02,0.000000e+00
1.224592e+02,0.000000e+00
1.340300e+02,0.000000e+00
1.456008e+02,0.000000e+00
1.571716e+02,0.000000e+00
1.687424e+02,0.000000e+00
1.803132e+02,0.000000e+00
1.918840e+02,0.000000e+00
2.034548e+02,1.566784e+03
2.150256e+02,1.579552e+03
2.265964e+02,1.572121e+03
2.381673e+02,1.589472e+03
2.497381e+02,1.584741e+03
2.613088e+02,1.580172e+03
2.728796e+02,1.596624e+03
2.844504e+02,1.583434e+03
2.960212e+02,1.599387e+03
3.075920e+02,1.594548e+03
3.191628e+02,1.608074e+03
3.307336e+02,1.602781e+03
3.423044e+02,1.617025e+03
3.538752e+02,1.611172e+03
3.654461e+02,1.601197e+03
3.770169e+02,1.617154e+03
3.885877e+02,1.606543e+03
4.001585e+02,1.601141e+03
4.117293e+02,1.601848e+03
4.233001e+02,1.612068e+03
4.348709e+02,1.610515e+03
4.464417e+02,1.599363e+03
4.580125e+02,1.593509e+03
4.695833e+02,1.599182e+03
4.811541e+02,1.587968e+03
4.927249e+02,1.586415e+03
5.042957e+02,1.574929e+03
5.158665e+02,1.579796e+03
5.274373e+02,1.571507e+03
5.390081e+02,1.563840e+03
5.505789e+02,1.570988e+03
5.621497e+02,1.549195e+03
5.737205e+02,1.546858e+03
5.852913e+02,1.538375e+03
5.968621e+02,1.539987e+03
6.084329e+02,1.547470e+03
6.200037e+02,1.530206e+03
6.315745e+02,1.522479e+03
6.431453e+02,1.517078e+03
6.547161e+02,1.505803e+03
6.662869e+02,1.497446e+03
6.778577e+02,1.482414e+03
6.894285e+02,1.479338e+03
7.009993e+02,1.481033e+03
7.125701e+02,1.472164e+03
7.241409e+02,1.457502e+03
7.357117e+02,1.444450e+03
7.472825e+02,1.460466e+03
7.588533e+02,1.438734e+03
7.704241e+02,1.433506e+03
7.819949e+02,1.423310e+03
7.935657e+02,1.411925e+03
8.051365e+02,1.407113e+03
8.167073e+02,1.410509e+03
8.282781e+02,1.398997e+03
8.398489e+02,1.389053e+03
8.514197e+02,1.372314e+03
8.629905e+02,1.387720e+03
8.745613e+02,1.383723e+03
8.861321e+02,1.364450e+03
8.977029e+02,1.354183e+03
9.092737e+02,1.346531e+03
9.208445e+02,1.338743e+03
9.324153e+02,1.325432e+03
9.439861e+02,1.328661e+03
9.555569e+02,1.313317e+03
9.671277e+02,1.304428e+03
9.786985e+02,1.300479e+03
9.902693e+02,1.303298e+03
1.001840e+03,1.287216e+03
1.013411e+03,1.289500e+03
1.024982e+03,1.273314e+03
1.036552e+03,1.273676e+03
1.048123e+03,1.269834e+03
1.059694e+03,1.253705e+03
1.071265e+03,1.248831e+03
1.082836e+03,1.254113e+03
1.094406e+03,1.257542e+03
1.105977e+03,1.242454e+03
1.117548e+03,1.243722e+03
1.129119e+03,1.225745e+03
1.140690e+03,1.215174e+03
1.152261e+03,1.212766e+03
1.163831e+03,1.202645e+03
1.175402e+03,1.190332e+03
1.186973e+03,1.185282e+03
1.198544e+03,1.181648e+03
1.210115e+03,1.175797e+03
1.221685e+03,1.170141e+03
1.233256e+03,1.166393e+03
1.244827e+03,1.152713e+03
1.256398e+03,1.160721e+03
1.267969e+03,1.150790e+03
1.279539e+03,1.150391e+03
1.291110e+03,1.156314e+03
1.302681e+03,1.140233e+03
1.314252e+03,1.139172e+03
1.325823e+03,1.138935e+03
1.337393e+03,1.140293e+03
1.348964e+03,1.128099e+03
1.360535e+03,1.130341e+03
1.372106e+03,1.128931e+03
1.383677e+03,1.112889e+03
1.395247e+03,1.102988e+03
1.406818e+03,1.098478e+03
1.418389e+03,1.085349e+03
1.429960e+03,1.082699e+03
1.441531e+03,1.074939e+03
1.453101e+03,1.070647e+03
1.464672e+03,1.068605e+03
1.476243e+03,1.066840e+03
1.487814e+03,1.059882e+03
1.499385e+03,1.040934e+03
1.510955e+03,1.040863e+03
1.522526e+03,1.045583e+03
1.534097e+03,1.038565e+03
1.545668e+03,1.023284e+03
1.557239e+03,1.031719e+03
1.568809e+03,1.029076e+03
1.580380e+03,1.012884e+03
1.591951e+03,1.006084e+03
1.603522e+03,1.006695e+03
1.615093e+03,9.834457e+02
1.626663e+03,9.828176e+02
1.638234e+03,9.738680e+02
1.649805e+03,9.765852e+02
1.661376e+03,9.441549e+02
1.672947e+03,9.540728e+02
1.684517e+03,9.485251e+02
1.696088e+03,9.465321e+02
1.707659e+03,9.332716e+02
1.719230e+03,9.298641e+02
1.730801e+03,9.247665e+02
1.742371e+03,9.151424e+02
1.753942e+03,9.079271e+02
1.765513e+03,8.947405e+02
1.777084e+03,8.921937e+02
1.788655e+03,8.774395e+02
1.800225e+03,8.760775e+02
1.811796e+03,8.634648e+02
1.823367e+03,8.594846e+02
1.834938e+03,8.557825e+02
1.846509e+03,8.592990e+02
1.858079e+03,8.507693e+02
1.869650e+03,8.308369e+02
1.881221e+03,8.239376e+02
1.892792e+03,8.203936e+02
1.904363e+03,8.174352e+02
1.915933e+03,8.052566e+02
1.927504e+03,8.080326e+02
1.939075e+03,7.898027e+02
1.950646e+03,7.927833e+02
1.962217e+03,7.860953e+02
1.973787e+03,7.799670e+02
1.985358e+03,7.847160e+02
1.996929e+03,7.661667e+02
2.008500e+03,7.620663e+02
2.020071e+03,7.593229e+02
2.031641e+03,7.460844e+02
2.043212e+03,7.307070e+02
2.054783e+03,7.221078e+02
2.066354e+03,7.307019e+02
2.077925e+03,7.117050e+02
2.089496e+03,7.166080e+02
2.101066e+03,7.059669e+02
2.112637e+03,6.932373e+02
2.124208e+03,6.936995e+02
2.135779e+03,6.895410e+02
2.147350e+03,6.862662e+02
2.158920e+03,6.728676e+02
2.170491e+03,6.634658e+02
2.182062e+03,6.623035e+02
2.193633e+03,6.539133e+02
2.205204e+03,6.577617e+02
2.216774e+03,6.399008e+02
2.228345e+03,6.383031e+02
2.239916e+03,6.306449e+02
2.251487e+03,6.157650e+02
2.263058e+03,6.238977e+02
2.274628e+03,5.993710e+02
2.286199e+03,6.034379e+02
2.297770e+03,6.002800e+02
2.309341e+03,5.959841e+02
2.320912e+03,5.992070e+02
2.332482e+03,5.801161e+02
2.344053e+03,5.770480e+02
2.355624e+03,5.716058e+02
2.367195e+03,5.674016e+02
2.378766e+03,5.533154e+02
2.390336e+03,5.573388e+02
2.401907e+03,5.500013e+02
2.413478e+03,5.403594e+02
2.425049e+03,5.345256e+02
2.436620e+03,5.376263e+02
2.448190e+03,5.188405e+02
2.459761e+03,5.137110e+02
2.471332e+03,5.111559e+02
2.482903e+03,5.214558e+02
2.494474e+03,5.079890e+02
2.506044e+03,5.144814e+02
2.517615e+03,5.044235e+02
2.529186e+03,4.899926e+02
2.540757e+03,4.984411e+02
2.552328e+03,5.019092e+02
2.563898e+03,4.832790e+02
2.575469e+03,4.822763e+02
2.587040e+03,4.867433e+02
2.598611e+03,4.706803e+02
2.610182e+03,4.671062e+02
2.621752e+03,4.761388e+02
2.633323e+03,4.711288e+02
2.644894e+03,4.593791e+02
2.656465e+03,4.676260e+02
2.668036e+03,4.492335e+02
2.679606e+03,4.523286e+02
2.691177e+03,4.487094e+02
2.702748e+03,4.383315e+02
2.714319e+03,4.464948e+02
2.725890e+03,4.459844e+02
2.737460e+03,4.302315e+02
2.749031e+03,4.475617e+02
2.760602e+03,4.258070e+02
2.772173e+03,4.170975e+02
2.783744e+03,4.371026e+02
2.795314e+03,4.265893e+02
2.806885e+03,4.291671e+02
2.818456e+03,4.281688e+02
2.830027e+03,4.141933e+02
2.841598e+03,4.195805e+02
2.853168e+03,4.161480e+02
2.864739e+03,4.050453e+02
2.876310e+03,4.338970e+02
2.887881e+03,4.208434e+02
2.899452e+03,4.192884e+02
2.911022e+03,4.088323e+02
2.922593e+03,4.084579e+02
2.934164e+03,4.104939e+02
2.945735e+03,3.962591e+02
2.957306e+03,4.418122e+02
2.968876e+03,3.922798e+02
2.980447e+03,3.952745e+02
2.992018e+03,3.902779e+02
3.003589e+03,3.698193e+02
3.015160e+03,3.915072e+02
3.026730e+03,3.821319e+02
3.038301e+03,3.830794e+02
3.049872e+03,3.541543e+02
3.061443e+03,3.849851e+02
3.073014e+03,3.884238e+02
3.084584e+03,3.713018e+02
3.096155e+03,3.626664e+02
3.107726e+03,3.825075e+02
3.119297e+03,3.736540e+02
3.130868e+03,4.061775e+02
3.142438e+03,3.842997e+02
3.154009e+03,3.718838e+02
3.165580e+03,3.798433e+02
3.177151e+03,3.603171e+02
3.188722e+03,3.624601e+02
3.200292e+03,3.937755e+02
3.211863e+03,0.000000e+00
3.223434e+03,0.000000e+00
3.235005e+03,0.000000e+00
3.246576e+03,0.000000e+00
3.258146e+03,0.000000e+00
3.269717e+03,0.000000e+00
3.281288e+03,0.000000e+00
3.292859e+03,0.000000e+00
3.304430e+03,0.000000e+00
3.316000e+03,0.000000e+00
3.327571e+03,0.000000e+00
3.339142e+03,0.000000e+00
3.350713e+03,0.000000e+00
3.362284e+03,0.000000e+00
3.373854e+03,0.000000e+00
3.385425e+03,0.000000e+00
3.396996e+03,0.000000e+00
3.408567e+03,0.000000e+00
3.420138e+03,0.000000e+00
3.431708e+03,0.000000e+00
3.443279e+03,0.000000e+00
3.454850e+03,0.000000e+00
3.466421e+03,0.000000e+00
3.477992e+03,0.000000e+00
3.489563e+03,0.000000e+00
3.500169e+03,0.000000e+00