File: RAMAN_data/19072023_r3/black fibre1.CSV
9.931763e+01,0.000000e+00
1.108884e+02,0.000000e+00
1.224592e+02,0.000000e+00
1.340300e+02,0.000000e+00
1.456008e+02,0.000000e+00
1.571716e+02,0.000000e+00
1.687424e+02,0.000000e+00
1.803132e+02,0.000000e+00
1.918840e+02,0.000000e+00
2.034548e+02,3.730942e+03
2.150256e+02,3.746237e+03
2.265964e+02,3.782606e+03
2.381673e+02,3.831118e+03
2.497381e+02,3.911402e+03
2.613088e+02,3.929692e+03
2.728796e+02,3.975968e+03
2.844504e+02,3.996182e+03
2.960212e+02,3.995775e+03
3.075920e+02,4.010700e+03
3.191628e+02,4.043521e+03
3.307336e+02,4.059752e+03
3.423044e+02,4.082953e+03
3.538752e+02,4.100444e+03
3.654461e+02,4.141118e+03
3.770169e+02,4.184730e+03
3.885877e+02,4.153075e+03
4.001585e+02,4.173646e+03
4.117293e+02,4.198031e+03
4.233001e+02,4.217342e+03
4.348709e+02,4.220651e+03
4.464417e+02,4.272165e+03
4.580125e+02,4.244412e+03
4.695833e+02,4.269731e+03
4.811541e+02,4.272241e+03
4.927249e+02,4.267630e+03
5.042957e+02,4.280831e+03
5.158665e+02,4.319553e+03
5.274373e+02,4.303451e+03
5.390081e+02,4.385204e+03
5.505789e+02,4.388167e+03
5.621497e+02,4.391915e+03
5.737205e+02,4.312746e+03
5.852913e+02,4.308566e+03
5.968621e+02,4.361566e+03
6.084329e+02,4.384114e+03
6.200037e+02,4.331911e+03
6.315745e+02,4.314615e+03
6.431453e+02,4.306951e+03
6.547161e+02,4.327276e+03
6.662869e+02,4.311092e+03
6.778577e+02,4.269266e+03
6.894285e+02,4.273312e+03
7.009993e+02,4.265122e+03
7.125701e+02,4.252698e+03
7.241409e+02,4.248235e+03
7.357117e+02,4.226863e+03
7.472825e+02,4.238886e+03
7.588533e+02,4.221268e+03
7.704241e+02,4.208907e+03
7.819949e+02,4.210585e+03
7.935657e+02,4.193181e+03
8.051365e+02,4.171981e+03
8.167073e+02,4.167946e+03
8.282781e+02,4.145181e+03
8.398489e+02,4.130276e+03
8.514197e+02,4.106088e+03
8.629905e+02,4.075954e+03
8.745613e+02,4.076767e+03
8.861321e+02,4.053695e+03
8.977029e+02,4.051229e+03
9.092737e+02,4.014868e+03
9.208445e+02,3.992314e+03
9.324153e+02,3.985635e+03
9.439861e+02,3.949467e+03
9.555569e+02,3.932898e+03
9.671277e+02,3.897859e+03
9.786985e+02,3.894396e+03
9.902693e+02,3.875593e+03
1.001840e+03,3.854390e+03
1.013411e+03,3.847383e+03
1.024982e+03,3.819739e+03
1.036552e+03,3.792368e+03
1.048123e+03,3.777692e+03
1.059694e+03,3.752783e+03
1.071265e+03,3.775690e+03
1.082836e+03,3.762979e+03
1.094406e+03,3.735983e+03
1.105977e+03,3.707370e+03
1.117548e+03,3.700767e+03
1.129119e+03,3.664483e+03
1.140690e+03,3.636292e+03
1.152261e+03,3.603806e+03
1.163831e+03,3.588288e+03
1.175402e+03,3.566772e+03
1.186973e+03,3.531447e+03
1.198544e+03,3.547703e+03
1.210115e+03,3.533916e+03
1.221685e+03,3.521152e+03
1.233256e+03,3.481829e+03
1.244827e+03,3.480759e+03
1.256398e+03,3.464770e+03
1.267969e+03,3.409499e+03
1.279539e+03,3.396425e+03
1.291110e+03,3.400464e+03
1.302681e+03,3.389718e+03
1.314252e+03,3.366877e+03
1.325823e+03,3.380715e+03
1.337393e+03,3.384517e+03
1.348964e+03,3.358640e+03
1.360535e+03,3.346542e+03
1.372106e+03,3.349433e+03
1.383677e+03,3.320547e+03
1.395247e+03,3.288097e+03
1.406818e+03,3.283562e+03
1.418389e+03,3.251647e+03
1.429960e+03,3.217159e+03
1.441531e+03,3.217395e+03
1.453101e+03,3.198414e+03
1.464672e+03,3.179181e+03
1.476243e+03,3.166753e+03
1.487814e+03,3.122663e+03
1.499385e+03,3.128054e+03
1.510955e+03,3.088469e+03
1.522526e+03,3.078018e+03
1.534097e+03,3.053388e+03
1.545668e+03,3.044118e+03
1.557239e+03,3.070316e+03
1.568809e+03,3.140685e+03
1.580380e+03,3.092724e+03
1.591951e+03,2.996298e+03
1.603522e+03,2.951710e+03
1.615093e+03,2.932877e+03
1.626663e+03,2.938524e+03
1.638234e+03,2.901003e+03
1.649805e+03,2.893309e+03
1.661376e+03,2.849036e+03
1.672947e+03,2.858269e+03
1.684517e+03,2.817920e+03
1.696088e+03,2.812092e+03
1.707659e+03,2.784006e+03
1.719230e+03,2.774452e+03
1.730801e+03,2.749626e+03
1.742371e+03,2.733866e+03
1.753942e+03,2.725219e+03
1.765513e+03,2.709111e+03
1.777084e+03,2.709203e+03
1.788655e+03,2.696577e+03
1.800225e+03,2.664701e+03
1.811796e+03,2.639136e+03
1.823367e+03,2.625641e+03
1.834938e+03,2.628409e+03
1.846509e+03,2.591266e+03
1.858079e+03,2.574350e+03
1.869650e+03,2.557841e+03
1.881221e+03,2.560437e+03
1.892792e+03,2.536615e+03
1.904363e+03,2.512939e+03
1.915933e+03,2.479185e+03
1.927504e+03,2.462664e+03
1.939075e+03,2.451179e+03
1.950646e+03,2.428323e+03
1.962217e+03,2.413686e+03
1.973787e+03,2.403008e+03
1.985358e+03,2.406225e+03
1.996929e+03,2.362411e+03
2.008500e+03,2.350538e+03
2.020071e+03,2.313312e+03
2.031641e+03,2.303998e+03
2.043212e+03,2.278298e+03
2.054783e+03,2.279832e+03
2.066354e+03,2.252786e+03
2.077925e+03,2.234695e+03
2.089496e+03,2.224438e+03
2.101066e+03,2.192225e+03
2.112637e+03,2.172114e+03
2.124208e+03,2.160075e+03
2.135779e+03,2.147425e+03
2.147350e+03,2.102842e+03
2.158920e+03,2.096594e+03
2.170491e+03,2.092780e+03
2.182062e+03,2.081236e+03
2.193633e+03,2.047281e+03
2.205204e+03,2.046267e+03
2.216774e+03,2.022527e+03
2.228345e+03,2.000997e+03
2.239916e+03,1.959215e+03
2.251487e+03,1.978020e+03
2.263058e+03,1.958306e+03
2.274628e+03,1.915054e+03
2.286199e+03,1.906929e+03
2.297770e+03,1.891953e+03
2.309341e+03,1.881525e+03
2.320912e+03,1.861672e+03
2.332482e+03,1.839206e+03
2.344053e+03,1.844227e+03
2.355624e+03,1.804864e+03
2.367195e+03,1.801987e+03
2.378766e+03,1.781807e+03
2.390336e+03,1.757829e+03
2.401907e+03,1.732880e+03
2.413478e+03,1.729775e+03
2.425049e+03,1.712118e+03
2.436620e+03,1.703294e+03
2.448190e+03,1.684292e+03
2.459761e+03,1.659697e+03
2.471332e+03,1.646797e+03
2.482903e+03,1.654461e+03
2.494474e+03,1.628133e+03
2.506044e+03,1.620010e+03
2.517615e+03,1.610154e+03
2.529186e+03,1.602010e+03
2.540757e+03,1.578533e+03
2.552328e+03,1.577588e+03
2.563898e+03,1.548733e+03
2.575469e+03,1.545064e+03
2.587040e+03,1.520204e+03
2.598611e+03,1.521583e+03
2.610182e+03,1.494641e+03
2.621752e+03,1.514125e+03
2.633323e+03,1.458382e+03
2.644894e+03,1.479820e+03
2.656465e+03,1.469970e+03
2.668036e+03,1.478249e+03
2.679606e+03,1.435462e+03
2.691177e+03,1.412926e+03
2.702748e+03,1.416995e+03
2.714319e+03,1.410865e+03
2.725890e+03,1.410606e+03
2.737460e+03,1.384449e+03
2.749031e+03,1.374688e+03
2.760602e+03,1.361783e+03
2.772173e+03,1.361313e+03
2.783744e+03,1.342474e+03
2.795314e+03,1.317188e+03
2.806885e+03,1.324635e+03
2.818456e+03,1.319800e+03
2.830027e+03,1.297971e+03
2.841598e+03,1.272350e+03
2.853168e+03,1.293711e+03
2.864739e+03,1.304191e+03
2.876310e+03,1.262642e+03
2.887881e+03,1.294687e+03
2.899452e+03,1.266236e+03
2.911022e+03,1.267157e+03
2.922593e+03,1.263975e+03
2.934164e+03,1.248604e+03
2.945735e+03,1.242676e+03
2.957306e+03,1.279023e+03
2.968876e+03,1.218810e+03
2.980447e+03,1.193478e+03
2.992018e+03,1.178774e+03
3.003589e+03,1.156443e+03
3.015160e+03,1.192670e+03
3.026730e+03,1.171713e+03
3.038301e+03,1.159303e+03
3.049872e+03,1.144582e+03
3.061443e+03,1.131794e+03
3.073014e+03,1.144354e+03
3.084584e+03,1.138427e+03
3.096155e+03,1.096357e+03
3.107726e+03,1.124146e+03
3.119297e+03,1.124194e+03
3.130868e+03,1.136282e+03
3.142438e+03,1.113929e+03
3.154009e+03,1.126563e+03
3.165580e+03,1.109705e+03
3.177151e+03,1.115921e+03
3.188722e+03,1.082976e+03
3.200292e+03,1.117075e+03
3.211863e+03,0.000000e+00
3.223434e+03,0.000000e+00
3.235005e+03,0.000000e+00
3.246576e+03,0.000000e+00
3.258146e+03,0.000000e+00
3.269717e+03,0.000000e+00
3.281288e+03,0.000000e+00
3.292859e+03,0.000000e+00
3.304430e+03,0.000000e+00
3.316000e+03,0.000000e+00
3.327571e+03,0.000000e+00
3.339142e+03,0.000000e+00
3.350713e+03,0.000000e+00
3.362284e+03,0.000000e+00
3.373854e+03,0.000000e+00
3.385425e+03,0.000000e+00
3.396996e+03,0.000000e+00
3.408567e+03,0.000000e+00
3.420138e+03,0.000000e+00
3.431708e+03,0.000000e+00
3.443279e+03,0.000000e+00
3.454850e+03,0.000000e+00
3.466421e+03,0.000000e+00
3.477992e+03,0.000000e+00
3.489563e+03,0.000000e+00
3.500169e+03,0.000000e+00