File: RAMAN_data/19072023_r3/black fibre4.CSV
9.931763e+01,0.000000e+00
1.108884e+02,0.000000e+00
1.224592e+02,0.000000e+00
1.340300e+02,0.000000e+00
1.456008e+02,0.000000e+00
1.571716e+02,0.000000e+00
1.687424e+02,0.000000e+00
1.803132e+02,0.000000e+00
1.918840e+02,0.000000e+00
2.034548e+02,1.052034e+04
2.150256e+02,1.057994e+04
2.265964e+02,1.068749e+04
2.381673e+02,1.083688e+04
2.497381e+02,1.092293e+04
2.613088e+02,1.102010e+04
2.728796e+02,1.114520e+04
2.844504e+02,1.128402e+04
2.960212e+02,1.139113e+04
3.075920e+02,1.148884e+04
3.191628e+02,1.160888e+04
3.307336e+02,1.175929e+04
3.423044e+02,1.189110e+04
3.538752e+02,1.203903e+04
3.654461e+02,1.215143e+04
3.770169e+02,1.231209e+04
3.885877e+02,1.246715e+04
4.001585e+02,1.259571e+04
4.117293e+02,1.274472e+04
4.233001e+02,1.288676e+04
4.348709e+02,1.304558e+04
4.464417e+02,1.321787e+04
4.580125e+02,1.333318e+04
4.695833e+02,1.347626e+04
4.811541e+02,1.360236e+04
4.927249e+02,1.374528e+04
5.042957e+02,1.387435e+04
5.158665e+02,1.399864e+04
5.274373e+02,1.410163e+04
5.390081e+02,1.417050e+04
5.505789e+02,1.428684e+04
5.621497e+02,1.439771e+04
5.737205e+02,1.446703e+04
5.852913e+02,1.457644e+04
5.968621e+02,1.471511e+04
6.084329e+02,1.480400e+04
6.200037e+02,1.484453e+04
6.315745e+02,1.490820e+04
6.431453e+02,1.500872e+04
6.547161e+02,1.510748e+04
6.662869e+02,1.514652e+04
6.778577e+02,1.514802e+04
6.894285e+02,1.519513e+04
7.009993e+02,1.527333e+04
7.125701e+02,1.527581e+04
7.241409e+02,1.527056e+04
7.357117e+02,1.523453e+04
7.472825e+02,1.523692e+04
7.588533e+02,1.517763e+04
7.704241e+02,1.509262e+04
7.819949e+02,1.507050e+04
7.935657e+02,1.504198e+04
8.051365e+02,1.495127e+04
8.167073e+02,1.490389e+04
8.282781e+02,1.484188e+04
8.398489e+02,1.477148e+04
8.514197e+02,1.465038e+04
8.629905e+02,1.455931e+04
8.745613e+02,1.445916e+04
8.861321e+02,1.443276e+04
8.977029e+02,1.431010e+04
9.092737e+02,1.420663e+04
9.208445e+02,1.411366e+04
9.324153e+02,1.404769e+04
9.439861e+02,1.391952e+04
9.555569e+02,1.380612e+04
9.671277e+02,1.372393e+04
9.786985e+02,1.361414e+04
9.902693e+02,1.349361e+04
1.001840e+03,1.333126e+04
1.013411e+03,1.326617e+04
1.024982e+03,1.320613e+04
1.036552e+03,1.306167e+04
1.048123e+03,1.295834e+04
1.059694e+03,1.289734e+04
1.071265e+03,1.284839e+04
1.082836e+03,1.273672e+04
1.094406e+03,1.258757e+04
1.105977e+03,1.252031e+04
1.117548e+03,1.249875e+04
1.129119e+03,1.237500e+04
1.140690e+03,1.230524e+04
1.152261e+03,1.227601e+04
1.163831e+03,1.218878e+04
1.175402e+03,1.209575e+04
1.186973e+03,1.202198e+04
1.198544e+03,1.200463e+04
1.210115e+03,1.194170e+04
1.221685e+03,1.189364e+04
1.233256e+03,1.185443e+04
1.244827e+03,1.185434e+04
1.256398e+03,1.185315e+04
1.267969e+03,1.181205e+04
1.279539e+03,1.180367e+04
1.291110e+03,1.182075e+04
1.302681e+03,1.181213e+04
1.314252e+03,1.177340e+04
1.325823e+03,1.170935e+04
1.337393e+03,1.168397e+04
1.348964e+03,1.166985e+04
1.360535e+03,1.157061e+04
1.372106e+03,1.150278e+04
1.383677e+03,1.146260e+04
1.395247e+03,1.135771e+04
1.406818e+03,1.130850e+04
1.418389e+03,1.121595e+04
1.429960e+03,1.115965e+04
1.441531e+03,1.110034e+04
1.453101e+03,1.099928e+04
1.464672e+03,1.092387e+04
1.476243e+03,1.087184e+04
1.487814e+03,1.078449e+04
1.499385e+03,1.072846e+04
1.510955e+03,1.062492e+04
1.522526e+03,1.058178e+04
1.534097e+03,1.050172e+04
1.545668e+03,1.040888e+04
1.557239e+03,1.037411e+04
1.568809e+03,1.027081e+04
1.580380e+03,1.026150e+04
1.591951e+03,1.012233e+04
1.603522e+03,1.005081e+04
1.615093e+03,1.003437e+04
1.626663e+03,9.880016e+03
1.638234e+03,9.781603e+03
1.649805e+03,9.681529e+03
1.661376e+03,9.623019e+03
1.672947e+03,9.507268e+03
1.684517e+03,9.412060e+03
1.696088e+03,9.383264e+03
1.707659e+03,9.249152e+03
1.719230e+03,9.184520e+03
1.730801e+03,9.105946e+03
1.742371e+03,8.976876e+03
1.753942e+03,8.916984e+03
1.765513e+03,8.839079e+03
1.777084e+03,8.740841e+03
1.788655e+03,8.615835e+03
1.800225e+03,8.595221e+03
1.811796e+03,8.477261e+03
1.823367e+03,8.357103e+03
1.834938e+03,8.298401e+03
1.846509e+03,8.263590e+03
1.858079e+03,8.132658e+03
1.869650e+03,8.048359e+03
1.881221e+03,7.892404e+03
1.892792e+03,7.861107e+03
1.904363e+03,7.777814e+03
1.915933e+03,7.669998e+03
1.927504e+03,7.556914e+03
1.939075e+03,7.513395e+03
1.950646e+03,7.390487e+03
1.962217e+03,7.346865e+03
1.973787e+03,7.223181e+03
1.985358e+03,7.155585e+03
1.996929e+03,7.091481e+03
2.008500e+03,6.980094e+03
2.020071e+03,6.895461e+03
2.031641e+03,6.801053e+03
2.043212e+03,6.708623e+03
2.054783e+03,6.648573e+03
2.066354e+03,6.573080e+03
2.077925e+03,6.488916e+03
2.089496e+03,6.433875e+03
2.101066e+03,6.349639e+03
2.112637e+03,6.207674e+03
2.124208e+03,6.188831e+03
2.135779e+03,6.118146e+03
2.147350e+03,5.976650e+03
2.158920e+03,5.918888e+03
2.170491e+03,5.843182e+03
2.182062e+03,5.765078e+03
2.193633e+03,5.711178e+03
2.205204e+03,5.618702e+03
2.216774e+03,5.570147e+03
2.228345e+03,5.491906e+03
2.239916e+03,5.376998e+03
2.251487e+03,5.320219e+03
2.263058e+03,5.218913e+03
2.274628e+03,5.184366e+03
2.286199e+03,5.080287e+03
2.297770e+03,5.050485e+03
2.309341e+03,4.968389e+03
2.320912e+03,4.886216e+03
2.332482e+03,4.846880e+03
2.344053e+03,4.792306e+03
2.355624e+03,4.715858e+03
2.367195e+03,4.634508e+03
2.378766e+03,4.597639e+03
2.390336e+03,4.535492e+03
2.401907e+03,4.483422e+03
2.413478e+03,4.405073e+03
2.425049e+03,4.378569e+03
2.436620e+03,4.329363e+03
2.448190e+03,4.264227e+03
2.459761e+03,4.195340e+03
2.471332e+03,4.155694e+03
2.482903e+03,4.134819e+03
2.494474e+03,4.060077e+03
2.506044e+03,3.998206e+03
2.517615e+03,3.956628e+03
2.529186e+03,3.934423e+03
2.540757e+03,3.857298e+03
2.552328e+03,3.816559e+03
2.563898e+03,3.766205e+03
2.575469e+03,3.764955e+03
2.587040e+03,3.692032e+03
2.598611e+03,3.665636e+03
2.610182e+03,3.644265e+03
2.621752e+03,3.597737e+03
2.633323e+03,3.534044e+03
2.644894e+03,3.534180e+03
2.656465e+03,3.478122e+03
2.668036e+03,3.444843e+03
2.679606e+03,3.392666e+03
2.691177e+03,3.372504e+03
2.702748e+03,3.325885e+03
2.714319e+03,3.303720e+03
2.725890e+03,3.261900e+03
2.737460e+03,3.217424e+03
2.749031e+03,3.186577e+03
2.760602e+03,3.139335e+03
2.772173e+03,3.118865e+03
2.783744e+03,3.116907e+03
2.795314e+03,3.041079e+03
2.806885e+03,3.065963e+03
2.818456e+03,3.042929e+03
2.830027e+03,2.967744e+03
2.841598e+03,2.962739e+03
2.853168e+03,2.965572e+03
2.864739e+03,2.912201e+03
2.876310e+03,2.880241e+03
2.887881e+03,2.879425e+03
2.899452e+03,2.868428e+03
2.911022e+03,2.817189e+03
2.922593e+03,2.814971e+03
2.934164e+03,2.773956e+03
2.945735e+03,2.755920e+03
2.957306e+03,2.770309e+03
2.968876e+03,2.723124e+03
2.980447e+03,2.670349e+03
2.992018e+03,2.637273e+03
3.003589e+03,2.590161e+03
3.015160e+03,2.582042e+03
3.026730e+03,2.624513e+03
3.038301e+03,2.598918e+03
3.049872e+03,2.624383e+03
3.061443e+03,2.588558e+03
3.073014e+03,2.567171e+03
3.084584e+03,2.495628e+03
3.096155e+03,2.503222e+03
3.107726e+03,2.499919e+03
3.119297e+03,2.494913e+03
3.130868e+03,2.570218e+03
3.142438e+03,2.483506e+03
3.154009e+03,2.540155e+03
3.165580e+03,2.464778e+03
3.177151e+03,2.515136e+03
3.188722e+03,2.536678e+03
3.200292e+03,2.553432e+03
3.211863e+03,0.000000e+00
3.223434e+03,0.000000e+00
3.235005e+03,0.000000e+00
3.246576e+03,0.000000e+00
3.258146e+03,0.000000e+00
3.269717e+03,0.000000e+00
3.281288e+03,0.000000e+00
3.292859e+03,0.000000e+00
3.304430e+03,0.000000e+00
3.316000e+03,0.000000e+00
3.327571e+03,0.000000e+00
3.339142e+03,0.000000e+00
3.350713e+03,0.000000e+00
3.362284e+03,0.000000e+00
3.373854e+03,0.000000e+00
3.385425e+03,0.000000e+00
3.396996e+03,0.000000e+00
3.408567e+03,0.000000e+00
3.420138e+03,0.000000e+00
3.431708e+03,0.000000e+00
3.443279e+03,0.000000e+00
3.454850e+03,0.000000e+00
3.466421e+03,0.000000e+00
3.477992e+03,0.000000e+00
3.489563e+03,0.000000e+00
3.500169e+03,0.000000e+00