File: RAMAN_data/not_plastic/defo not plastic1.CSV
9.931763e+01,0.000000e+00
1.108884e+02,0.000000e+00
1.224592e+02,0.000000e+00
1.340300e+02,0.000000e+00
1.456008e+02,0.000000e+00
1.571716e+02,0.000000e+00
1.687424e+02,0.000000e+00
1.803132e+02,0.000000e+00
1.918840e+02,0.000000e+00
2.034548e+02,5.099251e+03
2.150256e+02,5.053598e+03
2.265964e+02,4.996043e+03
2.381673e+02,4.971130e+03
2.497381e+02,4.904836e+03
2.613088e+02,4.835472e+03
2.728796e+02,4.801901e+03
2.844504e+02,4.767783e+03
2.960212e+02,4.722390e+03
3.075920e+02,4.694408e+03
3.191628e+02,4.625216e+03
3.307336e+02,4.592444e+03
3.423044e+02,4.535298e+03
3.538752e+02,4.483570e+03
3.654461e+02,4.449493e+03
3.770169e+02,4.419966e+03
3.885877e+02,4.356031e+03
4.001585e+02,4.309383e+03
4.117293e+02,4.272402e+03
4.233001e+02,4.243190e+03
4.348709e+02,4.213287e+03
4.464417e+02,4.160172e+03
4.580125e+02,4.134377e+03
4.695833e+02,4.083259e+03
4.811541e+02,4.045146e+03
4.927249e+02,4.015329e+03
5.042957e+02,3.977452e+03
5.158665e+02,3.955017e+03
5.274373e+02,3.913503e+03
5.390081e+02,3.864604e+03
5.505789e+02,3.859320e+03
5.621497e+02,3.842287e+03
5.737205e+02,3.807190e+03
5.852913e+02,3.771348e+03
5.968621e+02,3.761823e+03
6.084329e+02,3.743284e+03
6.200037e+02,3.701586e+03
6.315745e+02,3.693530e+03
6.431453e+02,3.666723e+03
6.547161e+02,3.645701e+03
6.662869e+02,3.629731e+03
6.778577e+02,3.616012e+03
6.894285e+02,3.583093e+03
7.009993e+02,3.576663e+03
7.125701e+02,3.564917e+03
7.241409e+02,3.534993e+03
7.357117e+02,3.500223e+03
7.472825e+02,3.468713e+03
7.588533e+02,3.478784e+03
7.704241e+02,3.457797e+03
7.819949e+02,3.432550e+03
7.935657e+02,3.423117e+03
8.051365e+02,3.401228e+03
8.167073e+02,3.394806e+03
8.282781e+02,3.370861e+03
8.398489e+02,3.349582e+03
8.514197e+02,3.356993e+03
8.629905e+02,3.322605e+03
8.745613e+02,3.310554e+03
8.861321e+02,3.292370e+03
8.977029e+02,3.271007e+03
9.092737e+02,3.241841e+03
9.208445e+02,3.219251e+03
9.324153e+02,3.199830e+03
9.439861e+02,3.201781e+03
9.555569e+02,3.174378e+03
9.671277e+02,3.158530e+03
9.786985e+02,3.138340e+03
9.902693e+02,3.120701e+03
1.001840e+03,3.095116e+03
1.013411e+03,3.087234e+03
1.024982e+03,3.073076e+03
1.036552e+03,3.061072e+03
1.048123e+03,3.037817e+03
1.059694e+03,3.031125e+03
1.071265e+03,3.016782e+03
1.082836e+03,3.002402e+03
1.094406e+03,2.984527e+03
1.105977e+03,2.984038e+03
1.117548e+03,2.982340e+03
1.129119e+03,2.947754e+03
1.140690e+03,2.944798e+03
1.152261e+03,2.923735e+03
1.163831e+03,2.907894e+03
1.175402e+03,2.883235e+03
1.186973e+03,2.854080e+03
1.198544e+03,2.863035e+03
1.210115e+03,2.850601e+03
1.221685e+03,2.830960e+03
1.233256e+03,2.806048e+03
1.244827e+03,2.805946e+03
1.256398e+03,2.813746e+03
1.267969e+03,2.777914e+03
1.279539e+03,2.757075e+03
1.291110e+03,2.758818e+03
1.302681e+03,2.760295e+03
1.314252e+03,2.731277e+03
1.325823e+03,2.734406e+03
1.337393e+03,2.746976e+03
1.348964e+03,2.719867e+03
1.360535e+03,2.698805e+03
1.372106e+03,2.701087e+03
1.383677e+03,2.687664e+03
1.395247e+03,2.654977e+03
1.406818e+03,2.655178e+03
1.418389e+03,2.636506e+03
1.429960e+03,2.623407e+03
1.441531e+03,2.606439e+03
1.453101e+03,2.599805e+03
1.464672e+03,2.569864e+03
1.476243e+03,2.576186e+03
1.487814e+03,2.574092e+03
1.499385e+03,2.535508e+03
1.510955e+03,2.526930e+03
1.522526e+03,2.525070e+03
1.534097e+03,2.534800e+03
1.545668e+03,2.492971e+03
1.557239e+03,2.493403e+03
1.568809e+03,2.488395e+03
1.580380e+03,2.474605e+03
1.591951e+03,2.465242e+03
1.603522e+03,2.464376e+03
1.615093e+03,2.431111e+03
1.626663e+03,2.404312e+03
1.638234e+03,2.395124e+03
1.649805e+03,2.380013e+03
1.661376e+03,2.340591e+03
1.672947e+03,2.349021e+03
1.684517e+03,2.324044e+03
1.696088e+03,2.300941e+03
1.707659e+03,2.286133e+03
1.719230e+03,2.277051e+03
1.730801e+03,2.264513e+03
1.742371e+03,2.253815e+03
1.753942e+03,2.238673e+03
1.765513e+03,2.210872e+03
1.777084e+03,2.203706e+03
1.788655e+03,2.200110e+03
1.800225e+03,2.184317e+03
1.811796e+03,2.175055e+03
1.823367e+03,2.146675e+03
1.834938e+03,2.137417e+03
1.846509e+03,2.123046e+03
1.858079e+03,2.120168e+03
1.869650e+03,2.098460e+03
1.881221e+03,2.093584e+03
1.892792e+03,2.058355e+03
1.904363e+03,2.043437e+03
1.915933e+03,2.048910e+03
1.927504e+03,2.023121e+03
1.939075e+03,2.022220e+03
1.950646e+03,1.998525e+03
1.962217e+03,2.003844e+03
1.973787e+03,1.977467e+03
1.985358e+03,1.959603e+03
1.996929e+03,1.947923e+03
2.008500e+03,1.941053e+03
2.020071e+03,1.925724e+03
2.031641e+03,1.907158e+03
2.043212e+03,1.883328e+03
2.054783e+03,1.882856e+03
2.066354e+03,1.857441e+03
2.077925e+03,1.856734e+03
2.089496e+03,1.835771e+03
2.101066e+03,1.816101e+03
2.112637e+03,1.808131e+03
2.124208e+03,1.815528e+03
2.135779e+03,1.770959e+03
2.147350e+03,1.759652e+03
2.158920e+03,1.736660e+03
2.170491e+03,1.762467e+03
2.182062e+03,1.725278e+03
2.193633e+03,1.712009e+03
2.205204e+03,1.714208e+03
2.216774e+03,1.688538e+03
2.228345e+03,1.656965e+03
2.239916e+03,1.674432e+03
2.251487e+03,1.651235e+03
2.263058e+03,1.623355e+03
2.274628e+03,1.623827e+03
2.286199e+03,1.604053e+03
2.297770e+03,1.605739e+03
2.309341e+03,1.588508e+03
2.320912e+03,1.569747e+03
2.332482e+03,1.550484e+03
2.344053e+03,1.550683e+03
2.355624e+03,1.533175e+03
2.367195e+03,1.529316e+03
2.378766e+03,1.509446e+03
2.390336e+03,1.496575e+03
2.401907e+03,1.488935e+03
2.413478e+03,1.473752e+03
2.425049e+03,1.473614e+03
2.436620e+03,1.465333e+03
2.448190e+03,1.450789e+03
2.459761e+03,1.438177e+03
2.471332e+03,1.422645e+03
2.482903e+03,1.415207e+03
2.494474e+03,1.393479e+03
2.506044e+03,1.400569e+03
2.517615e+03,1.387553e+03
2.529186e+03,1.371313e+03
2.540757e+03,1.370246e+03
2.552328e+03,1.380038e+03
2.563898e+03,1.345845e+03
2.575469e+03,1.357907e+03
2.587040e+03,1.322405e+03
2.598611e+03,1.328355e+03
2.610182e+03,1.317099e+03
2.621752e+03,1.317510e+03
2.633323e+03,1.297178e+03
2.644894e+03,1.310307e+03
2.656465e+03,1.275001e+03
2.668036e+03,1.266442e+03
2.679606e+03,1.271815e+03
2.691177e+03,1.256602e+03
2.702748e+03,1.233945e+03
2.714319e+03,1.236178e+03
2.725890e+03,1.245617e+03
2.737460e+03,1.236830e+03
2.749031e+03,1.243075e+03
2.760602e+03,1.209689e+03
2.772173e+03,1.231953e+03
2.783744e+03,1.197772e+03
2.795314e+03,1.176073e+03
2.806885e+03,1.170849e+03
2.818456e+03,1.188388e+03
2.830027e+03,1.194294e+03
2.841598e+03,1.175958e+03
2.853168e+03,1.159418e+03
2.864739e+03,1.158327e+03
2.876310e+03,1.176291e+03
2.887881e+03,1.138052e+03
2.899452e+03,1.148322e+03
2.911022e+03,1.147530e+03
2.922593e+03,1.132115e+03
2.934164e+03,1.145736e+03
2.945735e+03,1.133508e+03
2.957306e+03,1.131071e+03
2.968876e+03,1.104363e+03
2.980447e+03,1.093582e+03
2.992018e+03,1.088238e+03
3.003589e+03,1.066965e+03
3.015160e+03,1.074295e+03
3.026730e+03,1.050952e+03
3.038301e+03,1.066722e+03
3.049872e+03,1.067008e+03
3.061443e+03,1.077083e+03
3.073014e+03,1.044960e+03
3.084584e+03,1.047094e+03
3.096155e+03,1.082172e+03
3.107726e+03,1.081091e+03
3.119297e+03,1.031007e+03
3.130868e+03,1.027928e+03
3.142438e+03,1.030975e+03
3.154009e+03,1.121055e+03
3.165580e+03,1.057728e+03
3.177151e+03,1.030943e+03
3.188722e+03,1.037363e+03
3.200292e+03,1.045052e+03
3.211863e+03,0.000000e+00
3.223434e+03,0.000000e+00
3.235005e+03,0.000000e+00
3.246576e+03,0.000000e+00
3.258146e+03,0.000000e+00
3.269717e+03,0.000000e+00
3.281288e+03,0.000000e+00
3.292859e+03,0.000000e+00
3.304430e+03,0.000000e+00
3.316000e+03,0.000000e+00
3.327571e+03,0.000000e+00
3.339142e+03,0.000000e+00
3.350713e+03,0.000000e+00
3.362284e+03,0.000000e+00
3.373854e+03,0.000000e+00
3.385425e+03,0.000000e+00
3.396996e+03,0.000000e+00
3.408567e+03,0.000000e+00
3.420138e+03,0.000000e+00
3.431708e+03,0.000000e+00
3.443279e+03,0.000000e+00
3.454850e+03,0.000000e+00
3.466421e+03,0.000000e+00
3.477992e+03,0.000000e+00
3.489563e+03,0.000000e+00
3.500169e+03,0.000000e+00