File: RAMAN_data/20012023_r3/black fibre1.CSV
9.931763e+01,0.000000e+00
1.108884e+02,0.000000e+00
1.224592e+02,0.000000e+00
1.340300e+02,0.000000e+00
1.456008e+02,0.000000e+00
1.571716e+02,0.000000e+00
1.687424e+02,0.000000e+00
1.803132e+02,0.000000e+00
1.918840e+02,0.000000e+00
2.034548e+02,2.049811e+03
2.150256e+02,2.035928e+03
2.265964e+02,2.044450e+03
2.381673e+02,2.045867e+03
2.497381e+02,2.040015e+03
2.613088e+02,2.042918e+03
2.728796e+02,2.051959e+03
2.844504e+02,2.057219e+03
2.960212e+02,2.044647e+03
3.075920e+02,2.048066e+03
3.191628e+02,2.036813e+03
3.307336e+02,2.036896e+03
3.423044e+02,2.036311e+03
3.538752e+02,2.037670e+03
3.654461e+02,2.034784e+03
3.770169e+02,2.050310e+03
3.885877e+02,2.015947e+03
4.001585e+02,2.003161e+03
4.117293e+02,1.998534e+03
4.233001e+02,2.008168e+03
4.348709e+02,1.998952e+03
4.464417e+02,1.973448e+03
4.580125e+02,1.986128e+03
4.695833e+02,1.957661e+03
4.811541e+02,1.954664e+03
4.927249e+02,1.929729e+03
5.042957e+02,1.932525e+03
5.158665e+02,1.949454e+03
5.274373e+02,1.925612e+03
5.390081e+02,1.921079e+03
5.505789e+02,1.900279e+03
5.621497e+02,1.892113e+03
5.737205e+02,1.870100e+03
5.852913e+02,1.868992e+03
5.968621e+02,1.866791e+03
6.084329e+02,1.858347e+03
6.200037e+02,1.847534e+03
6.315745e+02,1.848399e+03
6.431453e+02,1.816049e+03
6.547161e+02,1.800808e+03
6.662869e+02,1.804891e+03
6.778577e+02,1.783783e+03
6.894285e+02,1.783955e+03
7.009993e+02,1.769254e+03
7.125701e+02,1.777493e+03
7.241409e+02,1.758559e+03
7.357117e+02,1.740900e+03
7.472825e+02,1.737776e+03
7.588533e+02,1.719812e+03
7.704241e+02,1.696847e+03
7.819949e+02,1.694868e+03
7.935657e+02,1.690250e+03
8.051365e+02,1.666609e+03
8.167073e+02,1.676306e+03
8.282781e+02,1.651148e+03
8.398489e+02,1.638281e+03
8.514197e+02,1.639967e+03
8.629905e+02,1.630989e+03
8.745613e+02,1.613185e+03
8.861321e+02,1.617880e+03
8.977029e+02,1.582046e+03
9.092737e+02,1.576904e+03
9.208445e+02,1.562179e+03
9.324153e+02,1.566451e+03
9.439861e+02,1.546128e+03
9.555569e+02,1.531620e+03
9.671277e+02,1.524562e+03
9.786985e+02,1.510155e+03
9.902693e+02,1.500782e+03
1.001840e+03,1.494085e+03
1.013411e+03,1.470674e+03
1.024982e+03,1.478939e+03
1.036552e+03,1.470041e+03
1.048123e+03,1.457939e+03
1.059694e+03,1.460912e+03
1.071265e+03,1.461194e+03
1.082836e+03,1.474049e+03
1.094406e+03,1.499145e+03
1.105977e+03,1.455028e+03
1.117548e+03,1.464980e+03
1.129119e+03,1.422645e+03
1.140690e+03,1.420880e+03
1.152261e+03,1.427912e+03
1.163831e+03,1.428991e+03
1.175402e+03,1.389117e+03
1.186973e+03,1.364583e+03
1.198544e+03,1.371290e+03
1.210115e+03,1.354838e+03
1.221685e+03,1.334589e+03
1.233256e+03,1.318386e+03
1.244827e+03,1.309279e+03
1.256398e+03,1.294490e+03
1.267969e+03,1.294699e+03
1.279539e+03,1.309400e+03
1.291110e+03,1.324963e+03
1.302681e+03,1.309761e+03
1.314252e+03,1.334652e+03
1.325823e+03,1.330840e+03
1.337393e+03,1.321622e+03
1.348964e+03,1.287945e+03
1.360535e+03,1.251782e+03
1.372106e+03,1.244372e+03
1.383677e+03,1.245071e+03
1.395247e+03,1.221265e+03
1.406818e+03,1.207411e+03
1.418389e+03,1.196008e+03
1.429960e+03,1.185922e+03
1.441531e+03,1.172822e+03
1.453101e+03,1.178847e+03
1.464672e+03,1.156731e+03
1.476243e+03,1.148353e+03
1.487814e+03,1.138097e+03
1.499385e+03,1.130555e+03
1.510955e+03,1.121696e+03
1.522526e+03,1.121435e+03
1.534097e+03,1.106214e+03
1.545668e+03,1.095441e+03
1.557239e+03,1.097598e+03
1.568809e+03,1.105877e+03
1.580380e+03,1.111560e+03
1.591951e+03,1.076682e+03
1.603522e+03,1.087258e+03
1.615093e+03,1.117417e+03
1.626663e+03,1.046762e+03
1.638234e+03,1.022357e+03
1.649805e+03,1.020910e+03
1.661376e+03,1.013043e+03
1.672947e+03,1.003323e+03
1.684517e+03,9.891983e+02
1.696088e+03,9.805397e+02
1.707659e+03,9.703431e+02
1.719230e+03,9.843535e+02
1.730801e+03,9.854503e+02
1.742371e+03,9.523234e+02
1.753942e+03,9.366815e+02
1.765513e+03,9.270040e+02
1.777084e+03,9.110899e+02
1.788655e+03,8.988795e+02
1.800225e+03,9.049643e+02
1.811796e+03,8.913299e+02
1.823367e+03,8.722438e+02
1.834938e+03,8.807278e+02
1.846509e+03,8.603406e+02
1.858079e+03,8.540370e+02
1.869650e+03,8.368859e+02
1.881221e+03,8.288265e+02
1.892792e+03,8.198611e+02
1.904363e+03,8.004377e+02
1.915933e+03,8.138695e+02
1.927504e+03,7.932556e+02
1.939075e+03,7.872675e+02
1.950646e+03,7.712927e+02
1.962217e+03,7.744856e+02
1.973787e+03,7.638221e+02
1.985358e+03,7.567970e+02
1.996929e+03,7.414935e+02
2.008500e+03,7.257520e+02
2.020071e+03,7.146144e+02
2.031641e+03,7.160999e+02
2.043212e+03,7.003633e+02
2.054783e+03,6.911088e+02
2.066354e+03,7.074779e+02
2.077925e+03,6.755051e+02
2.089496e+03,6.730126e+02
2.101066e+03,6.656472e+02
2.112637e+03,6.538926e+02
2.124208e+03,6.467838e+02
2.135779e+03,6.437135e+02
2.147350e+03,6.338253e+02
2.158920e+03,6.277548e+02
2.170491e+03,6.174757e+02
2.182062e+03,6.020432e+02
2.193633e+03,6.038912e+02
2.205204e+03,5.964441e+02
2.216774e+03,5.869841e+02
2.228345e+03,5.747775e+02
2.239916e+03,5.652672e+02
2.251487e+03,5.623212e+02
2.263058e+03,5.507653e+02
2.274628e+03,5.365609e+02
2.286199e+03,5.385661e+02
2.297770e+03,5.387682e+02
2.309341e+03,5.221773e+02
2.320912e+03,5.213172e+02
2.332482e+03,5.147635e+02
2.344053e+03,5.146654e+02
2.355624e+03,4.945616e+02
2.367195e+03,4.850964e+02
2.378766e+03,4.978478e+02
2.390336e+03,4.820773e+02
2.401907e+03,4.915249e+02
2.413478e+03,4.821534e+02
2.425049e+03,4.615187e+02
2.436620e+03,4.667197e+02
2.448190e+03,4.598232e+02
2.459761e+03,4.520955e+02
2.471332e+03,4.398349e+02
2.482903e+03,4.454371e+02
2.494474e+03,4.356162e+02
2.506044e+03,4.338799e+02
2.517615e+03,4.261508e+02
2.529186e+03,4.150040e+02
2.540757e+03,4.240456e+02
2.552328e+03,4.198054e+02
2.563898e+03,4.295057e+02
2.575469e+03,4.108723e+02
2.587040e+03,4.117240e+02
2.598611e+03,3.975499e+02
2.610182e+03,3.855787e+02
2.621752e+03,4.117188e+02
2.633323e+03,3.833309e+02
2.644894e+03,3.797322e+02
2.656465e+03,3.703506e+02
2.668036e+03,3.757501e+02
2.679606e+03,3.644317e+02
2.691177e+03,3.719982e+02
2.702748e+03,3.733303e+02
2.714319e+03,3.715291e+02
2.725890e+03,3.570542e+02
2.737460e+03,3.470926e+02
2.749031e+03,3.589099e+02
2.760602e+03,3.582251e+02
2.772173e+03,3.606788e+02
2.783744e+03,3.581746e+02
2.795314e+03,3.421385e+02
2.806885e+03,3.351377e+02
2.818456e+03,3.465836e+02
2.830027e+03,3.484258e+02
2.841598e+03,3.386547e+02
2.853168e+03,3.542506e+02
2.864739e+03,3.493211e+02
2.876310e+03,3.600960e+02
2.887881e+03,3.672712e+02
2.899452e+03,3.794447e+02
2.911022e+03,3.600020e+02
2.922593e+03,3.443666e+02
2.934164e+03,3.395394e+02
2.945735e+03,3.303996e+02
2.957306e+03,3.617426e+02
2.968876e+03,3.312601e+02
2.980447e+03,3.142356e+02
2.992018e+03,3.103977e+02
3.003589e+03,3.224925e+02
3.015160e+03,3.036738e+02
3.026730e+03,2.917465e+02
3.038301e+03,2.968135e+02
3.049872e+03,2.835533e+02
3.061443e+03,2.929308e+02
3.073014e+03,2.871870e+02
3.084584e+03,2.871127e+02
3.096155e+03,3.175870e+02
3.107726e+03,2.941552e+02
3.119297e+03,2.873602e+02
3.130868e+03,3.092426e+02
3.142438e+03,2.895211e+02
3.154009e+03,3.097125e+02
3.165580e+03,2.884411e+02
3.177151e+03,2.935405e+02
3.188722e+03,2.765786e+02
3.200292e+03,3.112216e+02
3.211863e+03,0.000000e+00
3.223434e+03,0.000000e+00
3.235005e+03,0.000000e+00
3.246576e+03,0.000000e+00
3.258146e+03,0.000000e+00
3.269717e+03,0.000000e+00
3.281288e+03,0.000000e+00
3.292859e+03,0.000000e+00
3.304430e+03,0.000000e+00
3.316000e+03,0.000000e+00
3.327571e+03,0.000000e+00
3.339142e+03,0.000000e+00
3.350713e+03,0.000000e+00
3.362284e+03,0.000000e+00
3.373854e+03,0.000000e+00
3.385425e+03,0.000000e+00
3.396996e+03,0.000000e+00
3.408567e+03,0.000000e+00
3.420138e+03,0.000000e+00
3.431708e+03,0.000000e+00
3.443279e+03,0.000000e+00
3.454850e+03,0.000000e+00
3.466421e+03,0.000000e+00
3.477992e+03,0.000000e+00
3.489563e+03,0.000000e+00
3.500169e+03,0.000000e+00