File: RAMAN_data/20012023_r3/black fibre6.CSV
9.931763e+01,0.000000e+00
1.108884e+02,0.000000e+00
1.224592e+02,0.000000e+00
1.340300e+02,0.000000e+00
1.456008e+02,0.000000e+00
1.571716e+02,0.000000e+00
1.687424e+02,0.000000e+00
1.803132e+02,0.000000e+00
1.918840e+02,0.000000e+00
2.034548e+02,1.051899e+04
2.150256e+02,1.057905e+04
2.265964e+02,1.068651e+04
2.381673e+02,1.083713e+04
2.497381e+02,1.092278e+04
2.613088e+02,1.101875e+04
2.728796e+02,1.114345e+04
2.844504e+02,1.128443e+04
2.960212e+02,1.138987e+04
3.075920e+02,1.148845e+04
3.191628e+02,1.160762e+04
3.307336e+02,1.173875e+04
3.423044e+02,1.183409e+04
3.538752e+02,1.193532e+04
3.654461e+02,1.198852e+04
3.770169e+02,1.212286e+04
3.885877e+02,1.222357e+04
4.001585e+02,1.222810e+04
4.117293e+02,1.227104e+04
4.233001e+02,1.232721e+04
4.348709e+02,1.238720e+04
4.464417e+02,1.238598e+04
4.580125e+02,1.245789e+04
4.695833e+02,1.246041e+04
4.811541e+02,1.251345e+04
4.927249e+02,1.251304e+04
5.042957e+02,1.254986e+04
5.158665e+02,1.262109e+04
5.274373e+02,1.261153e+04
5.390081e+02,1.255067e+04
5.505789e+02,1.256456e+04
5.621497e+02,1.253084e+04
5.737205e+02,1.246257e+04
5.852913e+02,1.241572e+04
5.968621e+02,1.237469e+04
6.084329e+02,1.238575e+04
6.200037e+02,1.230723e+04
6.315745e+02,1.227297e+04
6.431453e+02,1.220770e+04
6.547161e+02,1.216995e+04
6.662869e+02,1.213048e+04
6.778577e+02,1.205162e+04
6.894285e+02,1.199851e+04
7.009993e+02,1.198682e+04
7.125701e+02,1.193696e+04
7.241409e+02,1.184069e+04
7.357117e+02,1.180574e+04
7.472825e+02,1.177314e+04
7.588533e+02,1.171188e+04
7.704241e+02,1.161682e+04
7.819949e+02,1.159816e+04
7.935657e+02,1.152438e+04
8.051365e+02,1.147860e+04
8.167073e+02,1.140277e+04
8.282781e+02,1.138235e+04
8.398489e+02,1.130637e+04
8.514197e+02,1.126586e+04
8.629905e+02,1.117767e+04
8.745613e+02,1.111107e+04
8.861321e+02,1.112026e+04
8.977029e+02,1.100948e+04
9.092737e+02,1.093438e+04
9.208445e+02,1.089340e+04
9.324153e+02,1.081417e+04
9.439861e+02,1.073363e+04
9.555569e+02,1.069688e+04
9.671277e+02,1.062090e+04
9.786985e+02,1.058191e+04
9.902693e+02,1.050373e+04
1.001840e+03,1.040375e+04
1.013411e+03,1.040025e+04
1.024982e+03,1.035572e+04
1.036552e+03,1.030983e+04
1.048123e+03,1.019151e+04
1.059694e+03,1.016850e+04
1.071265e+03,1.015550e+04
1.082836e+03,1.010608e+04
1.094406e+03,1.000761e+04
1.105977e+03,9.952459e+03
1.117548e+03,9.954386e+03
1.129119e+03,9.848026e+03
1.140690e+03,9.797969e+03
1.152261e+03,9.761826e+03
1.163831e+03,9.736682e+03
1.175402e+03,9.619088e+03
1.186973e+03,9.587783e+03
1.198544e+03,9.570244e+03
1.210115e+03,9.506652e+03
1.221685e+03,9.408661e+03
1.233256e+03,9.352600e+03
1.244827e+03,9.336538e+03
1.256398e+03,9.277995e+03
1.267969e+03,9.201375e+03
1.279539e+03,9.179387e+03
1.291110e+03,9.138173e+03
1.302681e+03,9.106190e+03
1.314252e+03,9.025311e+03
1.325823e+03,8.998402e+03
1.337393e+03,8.969348e+03
1.348964e+03,8.902628e+03
1.360535e+03,8.826889e+03
1.372106e+03,8.786244e+03
1.383677e+03,8.760934e+03
1.395247e+03,8.665023e+03
1.406818e+03,8.605910e+03
1.418389e+03,8.584903e+03
1.429960e+03,8.546112e+03
1.441531e+03,8.457381e+03
1.453101e+03,8.406530e+03
1.464672e+03,8.400572e+03
1.476243e+03,8.344392e+03
1.487814e+03,8.241621e+03
1.499385e+03,8.202369e+03
1.510955e+03,8.152273e+03
1.522526e+03,8.135725e+03
1.534097e+03,8.065875e+03
1.545668e+03,8.015878e+03
1.557239e+03,7.990954e+03
1.568809e+03,7.917201e+03
1.580380e+03,7.888630e+03
1.591951e+03,7.848355e+03
1.603522e+03,7.778936e+03
1.615093e+03,7.703819e+03
1.626663e+03,7.679259e+03
1.638234e+03,7.558275e+03
1.649805e+03,7.508162e+03
1.661376e+03,7.493378e+03
1.672947e+03,7.397483e+03
1.684517e+03,7.350808e+03
1.696088e+03,7.304955e+03
1.707659e+03,7.266967e+03
1.719230e+03,7.197268e+03
1.730801e+03,7.101859e+03
1.742371e+03,7.099962e+03
1.753942e+03,7.039536e+03
1.765513e+03,7.009120e+03
1.777084e+03,6.939280e+03
1.788655e+03,6.835804e+03
1.800225e+03,6.818160e+03
1.811796e+03,6.785101e+03
1.823367e+03,6.695953e+03
1.834938e+03,6.629638e+03
1.846509e+03,6.617067e+03
1.858079e+03,6.517092e+03
1.869650e+03,6.500754e+03
1.881221e+03,6.442596e+03
1.892792e+03,6.329242e+03
1.904363e+03,6.330409e+03
1.915933e+03,6.252351e+03
1.927504e+03,6.195349e+03
1.939075e+03,6.103448e+03
1.950646e+03,6.081878e+03
1.962217e+03,6.027996e+03
1.973787e+03,5.962816e+03
1.985358e+03,5.940147e+03
1.996929e+03,5.807628e+03
2.008500e+03,5.795583e+03
2.020071e+03,5.755943e+03
2.031641e+03,5.711485e+03
2.043212e+03,5.631275e+03
2.054783e+03,5.584799e+03
2.066354e+03,5.505405e+03
2.077925e+03,5.436646e+03
2.089496e+03,5.383682e+03
2.101066e+03,5.336733e+03
2.112637e+03,5.245974e+03
2.124208e+03,5.226371e+03
2.135779e+03,5.146231e+03
2.147350e+03,5.064987e+03
2.158920e+03,5.037927e+03
2.170491e+03,5.006213e+03
2.182062e+03,4.918271e+03
2.193633e+03,4.860729e+03
2.205204e+03,4.815150e+03
2.216774e+03,4.784935e+03
2.228345e+03,4.677311e+03
2.239916e+03,4.647263e+03
2.251487e+03,4.602519e+03
2.263058e+03,4.549962e+03
2.274628e+03,4.471522e+03
2.286199e+03,4.418398e+03
2.297770e+03,4.395849e+03
2.309341e+03,4.352744e+03
2.320912e+03,4.277589e+03
2.332482e+03,4.241534e+03
2.344053e+03,4.199870e+03
2.355624e+03,4.137155e+03
2.367195e+03,4.084242e+03
2.378766e+03,4.022201e+03
2.390336e+03,3.996787e+03
2.401907e+03,3.962046e+03
2.413478e+03,3.881677e+03
2.425049e+03,3.879710e+03
2.436620e+03,3.800040e+03
2.448190e+03,3.753246e+03
2.459761e+03,3.740424e+03
2.471332e+03,3.682478e+03
2.482903e+03,3.654457e+03
2.494474e+03,3.626647e+03
2.506044e+03,3.561945e+03
2.517615e+03,3.548071e+03
2.529186e+03,3.494193e+03
2.540757e+03,3.464965e+03
2.552328e+03,3.434775e+03
2.563898e+03,3.408112e+03
2.575469e+03,3.375872e+03
2.587040e+03,3.316663e+03
2.598611e+03,3.293044e+03
2.610182e+03,3.256348e+03
2.621752e+03,3.236521e+03
2.633323e+03,3.182497e+03
2.644894e+03,3.168300e+03
2.656465e+03,3.171439e+03
2.668036e+03,3.115780e+03
2.679606e+03,3.070410e+03
2.691177e+03,3.069414e+03
2.702748e+03,3.011547e+03
2.714319e+03,2.973909e+03
2.725890e+03,2.965038e+03
2.737460e+03,2.917095e+03
2.749031e+03,2.916051e+03
2.760602e+03,2.882575e+03
2.772173e+03,2.870641e+03
2.783744e+03,2.855086e+03
2.795314e+03,2.777575e+03
2.806885e+03,2.827800e+03
2.818456e+03,2.753212e+03
2.830027e+03,2.779232e+03
2.841598e+03,2.742106e+03
2.853168e+03,2.725346e+03
2.864739e+03,2.692110e+03
2.876310e+03,2.668513e+03
2.887881e+03,2.652323e+03
2.899452e+03,2.647097e+03
2.911022e+03,2.611504e+03
2.922593e+03,2.586524e+03
2.934164e+03,2.543447e+03
2.945735e+03,2.540946e+03
2.957306e+03,2.587398e+03
2.968876e+03,2.539253e+03
2.980447e+03,2.477505e+03
2.992018e+03,2.446957e+03
3.003589e+03,2.420717e+03
3.015160e+03,2.455538e+03
3.026730e+03,2.421449e+03
3.038301e+03,2.393766e+03
3.049872e+03,2.373077e+03
3.061443e+03,2.339989e+03
3.073014e+03,2.342821e+03
3.084584e+03,2.363890e+03
3.096155e+03,2.301249e+03
3.107726e+03,2.304896e+03
3.119297e+03,2.372182e+03
3.130868e+03,2.293573e+03
3.142438e+03,2.339427e+03
3.154009e+03,2.333989e+03
3.165580e+03,2.341281e+03
3.177151e+03,2.288490e+03
3.188722e+03,2.253738e+03
3.200292e+03,2.316019e+03
3.211863e+03,0.000000e+00
3.223434e+03,0.000000e+00
3.235005e+03,0.000000e+00
3.246576e+03,0.000000e+00
3.258146e+03,0.000000e+00
3.269717e+03,0.000000e+00
3.281288e+03,0.000000e+00
3.292859e+03,0.000000e+00
3.304430e+03,0.000000e+00
3.316000e+03,0.000000e+00
3.327571e+03,0.000000e+00
3.339142e+03,0.000000e+00
3.350713e+03,0.000000e+00
3.362284e+03,0.000000e+00
3.373854e+03,0.000000e+00
3.385425e+03,0.000000e+00
3.396996e+03,0.000000e+00
3.408567e+03,0.000000e+00
3.420138e+03,0.000000e+00
3.431708e+03,0.000000e+00
3.443279e+03,0.000000e+00
3.454850e+03,0.000000e+00
3.466421e+03,0.000000e+00
3.477992e+03,0.000000e+00
3.489563e+03,0.000000e+00
3.500169e+03,0.000000e+00