File: RAMAN_data/20012023_r3/black fibre10.CSV
9.931763e+01,0.000000e+00
1.108884e+02,0.000000e+00
1.224592e+02,0.000000e+00
1.340300e+02,0.000000e+00
1.456008e+02,0.000000e+00
1.571716e+02,0.000000e+00
1.687424e+02,0.000000e+00
1.803132e+02,0.000000e+00
1.918840e+02,0.000000e+00
2.034548e+02,4.798566e+03
2.150256e+02,4.817632e+03
2.265964e+02,4.849642e+03
2.381673e+02,4.880743e+03
2.497381e+02,4.906776e+03
2.613088e+02,4.902205e+03
2.728796e+02,4.914092e+03
2.844504e+02,4.946818e+03
2.960212e+02,4.958345e+03
3.075920e+02,4.952773e+03
3.191628e+02,4.967034e+03
3.307336e+02,4.985769e+03
3.423044e+02,4.985568e+03
3.538752e+02,4.988714e+03
3.654461e+02,5.008243e+03
3.770169e+02,5.033221e+03
3.885877e+02,4.998205e+03
4.001585e+02,4.970898e+03
4.117293e+02,5.004119e+03
4.233001e+02,4.998633e+03
4.348709e+02,5.005148e+03
4.464417e+02,4.990579e+03
4.580125e+02,4.982375e+03
4.695833e+02,4.969683e+03
4.811541e+02,4.967386e+03
4.927249e+02,4.985950e+03
5.042957e+02,4.964126e+03
5.158665e+02,4.957826e+03
5.274373e+02,4.947840e+03
5.390081e+02,4.918096e+03
5.505789e+02,4.881475e+03
5.621497e+02,4.875419e+03
5.737205e+02,4.859611e+03
5.852913e+02,4.874515e+03
5.968621e+02,4.874329e+03
6.084329e+02,4.837914e+03
6.200037e+02,4.817494e+03
6.315745e+02,4.804935e+03
6.431453e+02,4.771604e+03
6.547161e+02,4.784649e+03
6.662869e+02,4.754798e+03
6.778577e+02,4.728420e+03
6.894285e+02,4.709569e+03
7.009993e+02,4.686006e+03
7.125701e+02,4.691125e+03
7.241409e+02,4.652534e+03
7.357117e+02,4.627394e+03
7.472825e+02,4.608682e+03
7.588533e+02,4.583630e+03
7.704241e+02,4.566994e+03
7.819949e+02,4.554423e+03
7.935657e+02,4.515308e+03
8.051365e+02,4.517594e+03
8.167073e+02,4.483412e+03
8.282781e+02,4.481206e+03
8.398489e+02,4.455921e+03
8.514197e+02,4.417756e+03
8.629905e+02,4.412604e+03
8.745613e+02,4.395209e+03
8.861321e+02,4.385979e+03
8.977029e+02,4.345517e+03
9.092737e+02,4.334514e+03
9.208445e+02,4.297098e+03
9.324153e+02,4.284937e+03
9.439861e+02,4.278427e+03
9.555569e+02,4.220970e+03
9.671277e+02,4.219103e+03
9.786985e+02,4.208409e+03
9.902693e+02,4.171043e+03
1.001840e+03,4.141808e+03
1.013411e+03,4.146177e+03
1.024982e+03,4.129659e+03
1.036552e+03,4.110207e+03
1.048123e+03,4.082355e+03
1.059694e+03,4.069896e+03
1.071265e+03,4.086097e+03
1.082836e+03,4.057977e+03
1.094406e+03,4.071125e+03
1.105977e+03,4.026705e+03
1.117548e+03,4.043412e+03
1.129119e+03,4.027635e+03
1.140690e+03,4.007560e+03
1.152261e+03,4.017266e+03
1.163831e+03,3.970565e+03
1.175402e+03,3.940665e+03
1.186973e+03,3.942812e+03
1.198544e+03,3.937480e+03
1.210115e+03,3.904262e+03
1.221685e+03,3.912370e+03
1.233256e+03,3.877719e+03
1.244827e+03,3.885629e+03
1.256398e+03,3.853781e+03
1.267969e+03,3.837847e+03
1.279539e+03,3.864798e+03
1.291110e+03,3.861010e+03
1.302681e+03,3.813202e+03
1.314252e+03,3.802043e+03
1.325823e+03,3.781469e+03
1.337393e+03,3.823445e+03
1.348964e+03,3.801628e+03
1.360535e+03,3.759497e+03
1.372106e+03,3.755124e+03
1.383677e+03,3.742328e+03
1.395247e+03,3.683652e+03
1.406818e+03,3.695104e+03
1.418389e+03,3.677762e+03
1.429960e+03,3.656488e+03
1.441531e+03,3.616642e+03
1.453101e+03,3.591946e+03
1.464672e+03,3.597587e+03
1.476243e+03,3.580715e+03
1.487814e+03,3.562785e+03
1.499385e+03,3.526325e+03
1.510955e+03,3.517362e+03
1.522526e+03,3.514027e+03
1.534097e+03,3.488920e+03
1.545668e+03,3.457171e+03
1.557239e+03,3.484071e+03
1.568809e+03,3.509280e+03
1.580380e+03,3.480212e+03
1.591951e+03,3.444895e+03
1.603522e+03,3.436273e+03
1.615093e+03,3.378685e+03
1.626663e+03,3.342694e+03
1.638234e+03,3.299946e+03
1.649805e+03,3.287214e+03
1.661376e+03,3.280101e+03
1.672947e+03,3.242037e+03
1.684517e+03,3.244051e+03
1.696088e+03,3.218770e+03
1.707659e+03,3.189022e+03
1.719230e+03,3.170918e+03
1.730801e+03,3.113649e+03
1.742371e+03,3.112705e+03
1.753942e+03,3.116261e+03
1.765513e+03,3.071478e+03
1.777084e+03,3.053286e+03
1.788655e+03,3.036030e+03
1.800225e+03,3.002860e+03
1.811796e+03,2.977608e+03
1.823367e+03,2.956390e+03
1.834938e+03,2.954628e+03
1.846509e+03,2.919305e+03
1.858079e+03,2.894302e+03
1.869650e+03,2.877738e+03
1.881221e+03,2.845824e+03
1.892792e+03,2.827493e+03
1.904363e+03,2.791938e+03
1.915933e+03,2.775213e+03
1.927504e+03,2.742300e+03
1.939075e+03,2.740865e+03
1.950646e+03,2.695198e+03
1.962217e+03,2.678431e+03
1.973787e+03,2.671649e+03
1.985358e+03,2.640229e+03
1.996929e+03,2.602763e+03
2.008500e+03,2.580040e+03
2.020071e+03,2.578393e+03
2.031641e+03,2.546191e+03
2.043212e+03,2.517793e+03
2.054783e+03,2.489288e+03
2.066354e+03,2.458662e+03
2.077925e+03,2.433885e+03
2.089496e+03,2.419809e+03
2.101066e+03,2.401372e+03
2.112637e+03,2.388926e+03
2.124208e+03,2.337588e+03
2.135779e+03,2.328400e+03
2.147350e+03,2.281897e+03
2.158920e+03,2.282623e+03
2.170491e+03,2.264667e+03
2.182062e+03,2.221598e+03
2.193633e+03,2.199007e+03
2.205204e+03,2.199657e+03
2.216774e+03,2.164292e+03
2.228345e+03,2.151926e+03
2.239916e+03,2.113538e+03
2.251487e+03,2.092840e+03
2.263058e+03,2.073578e+03
2.274628e+03,2.066023e+03
2.286199e+03,2.022379e+03
2.297770e+03,2.027149e+03
2.309341e+03,2.003876e+03
2.320912e+03,1.967212e+03
2.332482e+03,1.940449e+03
2.344053e+03,1.928171e+03
2.355624e+03,1.907229e+03
2.367195e+03,1.887205e+03
2.378766e+03,1.870086e+03
2.390336e+03,1.870679e+03
2.401907e+03,1.850991e+03
2.413478e+03,1.823897e+03
2.425049e+03,1.803221e+03
2.436620e+03,1.791695e+03
2.448190e+03,1.770137e+03
2.459761e+03,1.752479e+03
2.471332e+03,1.751917e+03
2.482903e+03,1.741857e+03
2.494474e+03,1.716253e+03
2.506044e+03,1.684813e+03
2.517615e+03,1.697445e+03
2.529186e+03,1.663595e+03
2.540757e+03,1.676477e+03
2.552328e+03,1.631249e+03
2.563898e+03,1.636643e+03
2.575469e+03,1.641578e+03
2.587040e+03,1.593854e+03
2.598611e+03,1.572300e+03
2.610182e+03,1.554745e+03
2.621752e+03,1.569849e+03
2.633323e+03,1.542857e+03
2.644894e+03,1.549836e+03
2.656465e+03,1.529543e+03
2.668036e+03,1.504349e+03
2.679606e+03,1.490699e+03
2.691177e+03,1.494542e+03
2.702748e+03,1.494775e+03
2.714319e+03,1.450053e+03
2.725890e+03,1.456108e+03
2.737460e+03,1.432698e+03
2.749031e+03,1.454924e+03
2.760602e+03,1.404343e+03
2.772173e+03,1.392278e+03
2.783744e+03,1.392589e+03
2.795314e+03,1.365986e+03
2.806885e+03,1.358432e+03
2.818456e+03,1.382139e+03
2.830027e+03,1.375271e+03
2.841598e+03,1.348138e+03
2.853168e+03,1.349309e+03
2.864739e+03,1.331421e+03
2.876310e+03,1.327971e+03
2.887881e+03,1.357439e+03
2.899452e+03,1.302585e+03
2.911022e+03,1.327862e+03
2.922593e+03,1.299801e+03
2.934164e+03,1.300727e+03
2.945735e+03,1.278869e+03
2.957306e+03,1.280191e+03
2.968876e+03,1.242878e+03
2.980447e+03,1.225201e+03
2.992018e+03,1.232415e+03
3.003589e+03,1.219370e+03
3.015160e+03,1.233295e+03
3.026730e+03,1.202654e+03
3.038301e+03,1.232374e+03
3.049872e+03,1.188738e+03
3.061443e+03,1.202800e+03
3.073014e+03,1.164490e+03
3.084584e+03,1.155838e+03
3.096155e+03,1.180004e+03
3.107726e+03,1.162396e+03
3.119297e+03,1.115030e+03
3.130868e+03,1.146278e+03
3.142438e+03,1.129226e+03
3.154009e+03,1.158277e+03
3.165580e+03,1.169125e+03
3.177151e+03,1.134525e+03
3.188722e+03,1.153830e+03
3.200292e+03,1.135836e+03
3.211863e+03,0.000000e+00
3.223434e+03,0.000000e+00
3.235005e+03,0.000000e+00
3.246576e+03,0.000000e+00
3.258146e+03,0.000000e+00
3.269717e+03,0.000000e+00
3.281288e+03,0.000000e+00
3.292859e+03,0.000000e+00
3.304430e+03,0.000000e+00
3.316000e+03,0.000000e+00
3.327571e+03,0.000000e+00
3.339142e+03,0.000000e+00
3.350713e+03,0.000000e+00
3.362284e+03,0.000000e+00
3.373854e+03,0.000000e+00
3.385425e+03,0.000000e+00
3.396996e+03,0.000000e+00
3.408567e+03,0.000000e+00
3.420138e+03,0.000000e+00
3.431708e+03,0.000000e+00
3.443279e+03,0.000000e+00
3.454850e+03,0.000000e+00
3.466421e+03,0.000000e+00
3.477992e+03,0.000000e+00
3.489563e+03,0.000000e+00
3.500169e+03,0.000000e+00