File: RAMAN_data/20012023_r3/black fibre3.CSV
9.931763e+01,0.000000e+00
1.108884e+02,0.000000e+00
1.224592e+02,0.000000e+00
1.340300e+02,0.000000e+00
1.456008e+02,0.000000e+00
1.571716e+02,0.000000e+00
1.687424e+02,0.000000e+00
1.803132e+02,0.000000e+00
1.918840e+02,0.000000e+00
2.034548e+02,3.610998e+03
2.150256e+02,3.613713e+03
2.265964e+02,3.605812e+03
2.381673e+02,3.627476e+03
2.497381e+02,3.617801e+03
2.613088e+02,3.618818e+03
2.728796e+02,3.649123e+03
2.844504e+02,3.664239e+03
2.960212e+02,3.642226e+03
3.075920e+02,3.635235e+03
3.191628e+02,3.653415e+03
3.307336e+02,3.630281e+03
3.423044e+02,3.620142e+03
3.538752e+02,3.625742e+03
3.654461e+02,3.621386e+03
3.770169e+02,3.634244e+03
3.885877e+02,3.624425e+03
4.001585e+02,3.609125e+03
4.117293e+02,3.605669e+03
4.233001e+02,3.600603e+03
4.348709e+02,3.599308e+03
4.464417e+02,3.592664e+03
4.580125e+02,3.579013e+03
4.695833e+02,3.571456e+03
4.811541e+02,3.534281e+03
4.927249e+02,3.537783e+03
5.042957e+02,3.514898e+03
5.158665e+02,3.515273e+03
5.274373e+02,3.523970e+03
5.390081e+02,3.472654e+03
5.505789e+02,3.460946e+03
5.621497e+02,3.447674e+03
5.737205e+02,3.432474e+03
5.852913e+02,3.445804e+03
5.968621e+02,3.428203e+03
6.084329e+02,3.422272e+03
6.200037e+02,3.403920e+03
6.315745e+02,3.397360e+03
6.431453e+02,3.352519e+03
6.547161e+02,3.368162e+03
6.662869e+02,3.330548e+03
6.778577e+02,3.313369e+03
6.894285e+02,3.288716e+03
7.009993e+02,3.296450e+03
7.125701e+02,3.269536e+03
7.241409e+02,3.251839e+03
7.357117e+02,3.237423e+03
7.472825e+02,3.228610e+03
7.588533e+02,3.214092e+03
7.704241e+02,3.163053e+03
7.819949e+02,3.157244e+03
7.935657e+02,3.172130e+03
8.051365e+02,3.133252e+03
8.167073e+02,3.131961e+03
8.282781e+02,3.102398e+03
8.398489e+02,3.107643e+03
8.514197e+02,3.086637e+03
8.629905e+02,3.057223e+03
8.745613e+02,3.034136e+03
8.861321e+02,3.033562e+03
8.977029e+02,2.991484e+03
9.092737e+02,2.968602e+03
9.208445e+02,2.945498e+03
9.324153e+02,2.928604e+03
9.439861e+02,2.910300e+03
9.555569e+02,2.883231e+03
9.671277e+02,2.879628e+03
9.786985e+02,2.865107e+03
9.902693e+02,2.857671e+03
1.001840e+03,2.827494e+03
1.013411e+03,2.817906e+03
1.024982e+03,2.811247e+03
1.036552e+03,2.802897e+03
1.048123e+03,2.756698e+03
1.059694e+03,2.783834e+03
1.071265e+03,2.779164e+03
1.082836e+03,2.785813e+03
1.094406e+03,2.774812e+03
1.105977e+03,2.739031e+03
1.117548e+03,2.736093e+03
1.129119e+03,2.709873e+03
1.140690e+03,2.697359e+03
1.152261e+03,2.727309e+03
1.163831e+03,2.726804e+03
1.175402e+03,2.671457e+03
1.186973e+03,2.628011e+03
1.198544e+03,2.632370e+03
1.210115e+03,2.610545e+03
1.221685e+03,2.582412e+03
1.233256e+03,2.561687e+03
1.244827e+03,2.581887e+03
1.256398e+03,2.552735e+03
1.267969e+03,2.533258e+03
1.279539e+03,2.557259e+03
1.291110e+03,2.555417e+03
1.302681e+03,2.552183e+03
1.314252e+03,2.559762e+03
1.325823e+03,2.561373e+03
1.337393e+03,2.540745e+03
1.348964e+03,2.507102e+03
1.360535e+03,2.452607e+03
1.372106e+03,2.447450e+03
1.383677e+03,2.429428e+03
1.395247e+03,2.410680e+03
1.406818e+03,2.391667e+03
1.418389e+03,2.397383e+03
1.429960e+03,2.368317e+03
1.441531e+03,2.347191e+03
1.453101e+03,2.328332e+03
1.464672e+03,2.304960e+03
1.476243e+03,2.295641e+03
1.487814e+03,2.285196e+03
1.499385e+03,2.255414e+03
1.510955e+03,2.243829e+03
1.522526e+03,2.249332e+03
1.534097e+03,2.218336e+03
1.545668e+03,2.207793e+03
1.557239e+03,2.214431e+03
1.568809e+03,2.213708e+03
1.580380e+03,2.220055e+03
1.591951e+03,2.177648e+03
1.603522e+03,2.168274e+03
1.615093e+03,2.214042e+03
1.626663e+03,2.104543e+03
1.638234e+03,2.088354e+03
1.649805e+03,2.082084e+03
1.661376e+03,2.057907e+03
1.672947e+03,2.023541e+03
1.684517e+03,2.012938e+03
1.696088e+03,1.998241e+03
1.707659e+03,1.992521e+03
1.719230e+03,1.987040e+03
1.730801e+03,1.968921e+03
1.742371e+03,1.949322e+03
1.753942e+03,1.933417e+03
1.765513e+03,1.900771e+03
1.777084e+03,1.885785e+03
1.788655e+03,1.865199e+03
1.800225e+03,1.860629e+03
1.811796e+03,1.838230e+03
1.823367e+03,1.809701e+03
1.834938e+03,1.794200e+03
1.846509e+03,1.796335e+03
1.858079e+03,1.760950e+03
1.869650e+03,1.742560e+03
1.881221e+03,1.723152e+03
1.892792e+03,1.718395e+03
1.904363e+03,1.688098e+03
1.915933e+03,1.679791e+03
1.927504e+03,1.665199e+03
1.939075e+03,1.647981e+03
1.950646e+03,1.630332e+03
1.962217e+03,1.630758e+03
1.973787e+03,1.595313e+03
1.985358e+03,1.599138e+03
1.996929e+03,1.562768e+03
2.008500e+03,1.544845e+03
2.020071e+03,1.534622e+03
2.031641e+03,1.507392e+03
2.043212e+03,1.496481e+03
2.054783e+03,1.467486e+03
2.066354e+03,1.459993e+03
2.077925e+03,1.437160e+03
2.089496e+03,1.415168e+03
2.101066e+03,1.398457e+03
2.112637e+03,1.401821e+03
2.124208e+03,1.380009e+03
2.135779e+03,1.367837e+03
2.147350e+03,1.338771e+03
2.158920e+03,1.329684e+03
2.170491e+03,1.314136e+03
2.182062e+03,1.296712e+03
2.193633e+03,1.286859e+03
2.205204e+03,1.275045e+03
2.216774e+03,1.264188e+03
2.228345e+03,1.233925e+03
2.239916e+03,1.230469e+03
2.251487e+03,1.197083e+03
2.263058e+03,1.192728e+03
2.274628e+03,1.179547e+03
2.286199e+03,1.178745e+03
2.297770e+03,1.163056e+03
2.309341e+03,1.140527e+03
2.320912e+03,1.127531e+03
2.332482e+03,1.116406e+03
2.344053e+03,1.100373e+03
2.355624e+03,1.095430e+03
2.367195e+03,1.074137e+03
2.378766e+03,1.060774e+03
2.390336e+03,1.054587e+03
2.401907e+03,1.053581e+03
2.413478e+03,1.015658e+03
2.425049e+03,1.025631e+03
2.436620e+03,1.017918e+03
2.448190e+03,1.000848e+03
2.459761e+03,9.796672e+02
2.471332e+03,9.821519e+02
2.482903e+03,9.712780e+02
2.494474e+03,9.505887e+02
2.506044e+03,9.607144e+02
2.517615e+03,9.413254e+02
2.529186e+03,9.143663e+02
2.540757e+03,9.345450e+02
2.552328e+03,9.155072e+02
2.563898e+03,9.119752e+02
2.575469e+03,9.014164e+02
2.587040e+03,8.921941e+02
2.598611e+03,8.806393e+02
2.610182e+03,8.698535e+02
2.621752e+03,8.563293e+02
2.633323e+03,8.647048e+02
2.644894e+03,8.360908e+02
2.656465e+03,8.569799e+02
2.668036e+03,8.358365e+02
2.679606e+03,8.142021e+02
2.691177e+03,8.230806e+02
2.702748e+03,8.167286e+02
2.714319e+03,8.044675e+02
2.725890e+03,8.006219e+02
2.737460e+03,7.976675e+02
2.749031e+03,7.717404e+02
2.760602e+03,7.664930e+02
2.772173e+03,7.708840e+02
2.783744e+03,7.638574e+02
2.795314e+03,7.501020e+02
2.806885e+03,7.471682e+02
2.818456e+03,7.433248e+02
2.830027e+03,7.280586e+02
2.841598e+03,7.379315e+02
2.853168e+03,7.413105e+02
2.864739e+03,7.348422e+02
2.876310e+03,7.368502e+02
2.887881e+03,7.376662e+02
2.899452e+03,7.637365e+02
2.911022e+03,7.319247e+02
2.922593e+03,7.206823e+02
2.934164e+03,7.084954e+02
2.945735e+03,7.080585e+02
2.957306e+03,7.223933e+02
2.968876e+03,6.783476e+02
2.980447e+03,6.896871e+02
2.992018e+03,6.706347e+02
3.003589e+03,6.684490e+02
3.015160e+03,6.427962e+02
3.026730e+03,6.366074e+02
3.038301e+03,6.411508e+02
3.049872e+03,6.687123e+02
3.061443e+03,6.612438e+02
3.073014e+03,6.488510e+02
3.084584e+03,6.396521e+02
3.096155e+03,6.459799e+02
3.107726e+03,6.346895e+02
3.119297e+03,6.229805e+02
3.130868e+03,6.517208e+02
3.142438e+03,6.674048e+02
3.154009e+03,6.395628e+02
3.165580e+03,6.422454e+02
3.177151e+03,6.489011e+02
3.188722e+03,6.018910e+02
3.200292e+03,6.730695e+02
3.211863e+03,0.000000e+00
3.223434e+03,0.000000e+00
3.235005e+03,0.000000e+00
3.246576e+03,0.000000e+00
3.258146e+03,0.000000e+00
3.269717e+03,0.000000e+00
3.281288e+03,0.000000e+00
3.292859e+03,0.000000e+00
3.304430e+03,0.000000e+00
3.316000e+03,0.000000e+00
3.327571e+03,0.000000e+00
3.339142e+03,0.000000e+00
3.350713e+03,0.000000e+00
3.362284e+03,0.000000e+00
3.373854e+03,0.000000e+00
3.385425e+03,0.000000e+00
3.396996e+03,0.000000e+00
3.408567e+03,0.000000e+00
3.420138e+03,0.000000e+00
3.431708e+03,0.000000e+00
3.443279e+03,0.000000e+00
3.454850e+03,0.000000e+00
3.466421e+03,0.000000e+00
3.477992e+03,0.000000e+00
3.489563e+03,0.000000e+00
3.500169e+03,0.000000e+00