File: RAMAN_data/20012023_r3/black fibre11.CSV
9.931763e+01,0.000000e+00
1.108884e+02,0.000000e+00
1.224592e+02,0.000000e+00
1.340300e+02,0.000000e+00
1.456008e+02,0.000000e+00
1.571716e+02,0.000000e+00
1.687424e+02,0.000000e+00
1.803132e+02,0.000000e+00
1.918840e+02,0.000000e+00
2.034548e+02,1.071704e+03
2.150256e+02,1.082247e+03
2.265964e+02,1.077719e+03
2.381673e+02,1.089001e+03
2.497381e+02,1.096347e+03
2.613088e+02,1.096807e+03
2.728796e+02,1.109322e+03
2.844504e+02,1.114149e+03
2.960212e+02,1.112419e+03
3.075920e+02,1.114977e+03
3.191628e+02,1.116813e+03
3.307336e+02,1.120772e+03
3.423044e+02,1.135654e+03
3.538752e+02,1.128121e+03
3.654461e+02,1.130162e+03
3.770169e+02,1.150801e+03
3.885877e+02,1.129646e+03
4.001585e+02,1.128366e+03
4.117293e+02,1.130281e+03
4.233001e+02,1.128744e+03
4.348709e+02,1.144865e+03
4.464417e+02,1.126182e+03
4.580125e+02,1.142020e+03
4.695833e+02,1.138610e+03
4.811541e+02,1.136290e+03
4.927249e+02,1.127614e+03
5.042957e+02,1.124936e+03
5.158665e+02,1.143602e+03
5.274373e+02,1.132444e+03
5.390081e+02,1.124469e+03
5.505789e+02,1.119541e+03
5.621497e+02,1.124549e+03
5.737205e+02,1.116483e+03
5.852913e+02,1.124553e+03
5.968621e+02,1.120834e+03
6.084329e+02,1.108041e+03
6.200037e+02,1.102405e+03
6.315745e+02,1.107610e+03
6.431453e+02,1.097251e+03
6.547161e+02,1.106109e+03
6.662869e+02,1.110975e+03
6.778577e+02,1.103138e+03
6.894285e+02,1.099576e+03
7.009993e+02,1.091755e+03
7.125701e+02,1.095178e+03
7.241409e+02,1.088425e+03
7.357117e+02,1.089368e+03
7.472825e+02,1.076139e+03
7.588533e+02,1.077923e+03
7.704241e+02,1.077001e+03
7.819949e+02,1.069036e+03
7.935657e+02,1.065603e+03
8.051365e+02,1.068636e+03
8.167073e+02,1.064943e+03
8.282781e+02,1.052138e+03
8.398489e+02,1.054717e+03
8.514197e+02,1.043007e+03
8.629905e+02,1.050600e+03
8.745613e+02,1.055325e+03
8.861321e+02,1.049618e+03
8.977029e+02,1.049450e+03
9.092737e+02,1.031085e+03
9.208445e+02,1.027885e+03
9.324153e+02,1.027545e+03
9.439861e+02,1.017370e+03
9.555569e+02,1.019990e+03
9.671277e+02,1.022924e+03
9.786985e+02,1.020545e+03
9.902693e+02,1.018445e+03
1.001840e+03,1.006666e+03
1.013411e+03,9.995964e+02
1.024982e+03,1.002197e+03
1.036552e+03,1.007148e+03
1.048123e+03,1.003326e+03
1.059694e+03,1.006772e+03
1.071265e+03,1.001551e+03
1.082836e+03,1.004567e+03
1.094406e+03,1.016511e+03
1.105977e+03,1.002253e+03
1.117548e+03,1.010476e+03
1.129119e+03,9.963082e+02
1.140690e+03,9.904899e+02
1.152261e+03,9.858453e+02
1.163831e+03,9.873297e+02
1.175402e+03,9.775680e+02
1.186973e+03,9.703033e+02
1.198544e+03,9.724252e+02
1.210115e+03,9.734102e+02
1.221685e+03,9.731984e+02
1.233256e+03,9.695323e+02
1.244827e+03,9.791152e+02
1.256398e+03,9.750764e+02
1.267969e+03,9.721256e+02
1.279539e+03,9.912844e+02
1.291110e+03,9.847455e+02
1.302681e+03,9.804248e+02
1.314252e+03,9.881212e+02
1.325823e+03,9.941702e+02
1.337393e+03,9.983773e+02
1.348964e+03,9.942438e+02
1.360535e+03,1.001723e+03
1.372106e+03,1.001739e+03
1.383677e+03,9.930710e+02
1.395247e+03,9.854728e+02
1.406818e+03,9.842894e+02
1.418389e+03,9.724976e+02
1.429960e+03,9.653503e+02
1.441531e+03,9.712589e+02
1.453101e+03,9.652526e+02
1.464672e+03,9.643661e+02
1.476243e+03,9.733858e+02
1.487814e+03,9.683480e+02
1.499385e+03,9.409563e+02
1.510955e+03,9.441443e+02
1.522526e+03,9.396674e+02
1.534097e+03,9.503871e+02
1.545668e+03,9.380584e+02
1.557239e+03,9.351522e+02
1.568809e+03,9.316710e+02
1.580380e+03,9.240701e+02
1.591951e+03,9.152551e+02
1.603522e+03,9.106415e+02
1.615093e+03,9.156823e+02
1.626663e+03,9.016015e+02
1.638234e+03,8.982922e+02
1.649805e+03,8.853216e+02
1.661376e+03,8.804576e+02
1.672947e+03,8.718096e+02
1.684517e+03,8.844492e+02
1.696088e+03,8.678487e+02
1.707659e+03,8.678200e+02
1.719230e+03,8.683407e+02
1.730801e+03,8.757411e+02
1.742371e+03,8.602282e+02
1.753942e+03,8.527337e+02
1.765513e+03,8.493925e+02
1.777084e+03,8.456329e+02
1.788655e+03,8.303530e+02
1.800225e+03,8.445377e+02
1.811796e+03,8.350260e+02
1.823367e+03,8.291708e+02
1.834938e+03,8.263820e+02
1.846509e+03,8.309908e+02
1.858079e+03,8.150636e+02
1.869650e+03,8.122396e+02
1.881221e+03,8.130916e+02
1.892792e+03,8.131365e+02
1.904363e+03,7.918009e+02
1.915933e+03,8.025075e+02
1.927504e+03,7.956996e+02
1.939075e+03,7.791363e+02
1.950646e+03,7.909907e+02
1.962217e+03,7.874539e+02
1.973787e+03,7.778368e+02
1.985358e+03,7.719319e+02
1.996929e+03,7.635852e+02
2.008500e+03,7.588591e+02
2.020071e+03,7.561249e+02
2.031641e+03,7.482688e+02
2.043212e+03,7.409153e+02
2.054783e+03,7.550305e+02
2.066354e+03,7.447105e+02
2.077925e+03,7.335632e+02
2.089496e+03,7.399601e+02
2.101066e+03,7.325843e+02
2.112637e+03,7.183671e+02
2.124208e+03,7.263559e+02
2.135779e+03,7.052045e+02
2.147350e+03,7.049149e+02
2.158920e+03,6.978467e+02
2.170491e+03,7.047018e+02
2.182062e+03,7.069704e+02
2.193633e+03,6.974777e+02
2.205204e+03,6.975865e+02
2.216774e+03,6.793043e+02
2.228345e+03,6.853087e+02
2.239916e+03,6.839435e+02
2.251487e+03,6.664828e+02
2.263058e+03,6.685311e+02
2.274628e+03,6.533080e+02
2.286199e+03,6.575494e+02
2.297770e+03,6.491696e+02
2.309341e+03,6.516407e+02
2.320912e+03,6.408231e+02
2.332482e+03,6.450401e+02
2.344053e+03,6.372926e+02
2.355624e+03,6.465922e+02
2.367195e+03,6.218709e+02
2.378766e+03,6.313204e+02
2.390336e+03,6.360627e+02
2.401907e+03,6.292992e+02
2.413478e+03,6.272618e+02
2.425049e+03,6.213262e+02
2.436620e+03,6.215711e+02
2.448190e+03,6.081532e+02
2.459761e+03,6.042459e+02
2.471332e+03,6.079521e+02
2.482903e+03,6.067752e+02
2.494474e+03,5.781003e+02
2.506044e+03,6.049872e+02
2.517615e+03,5.974929e+02
2.529186e+03,5.838766e+02
2.540757e+03,5.918126e+02
2.552328e+03,5.883497e+02
2.563898e+03,5.937385e+02
2.575469e+03,5.910549e+02
2.587040e+03,5.829649e+02
2.598611e+03,5.742315e+02
2.610182e+03,5.775129e+02
2.621752e+03,5.694263e+02
2.633323e+03,5.699662e+02
2.644894e+03,5.746984e+02
2.656465e+03,5.562758e+02
2.668036e+03,5.683138e+02
2.679606e+03,5.634755e+02
2.691177e+03,5.709919e+02
2.702748e+03,5.600681e+02
2.714319e+03,5.493178e+02
2.725890e+03,5.655967e+02
2.737460e+03,5.352037e+02
2.749031e+03,5.609500e+02
2.760602e+03,5.505938e+02
2.772173e+03,5.452766e+02
2.783744e+03,5.540212e+02
2.795314e+03,5.399240e+02
2.806885e+03,5.262150e+02
2.818456e+03,5.239145e+02
2.830027e+03,5.247789e+02
2.841598e+03,5.394590e+02
2.853168e+03,5.356695e+02
2.864739e+03,5.385131e+02
2.876310e+03,5.505026e+02
2.887881e+03,5.487272e+02
2.899452e+03,5.505530e+02
2.911022e+03,5.380781e+02
2.922593e+03,5.284447e+02
2.934164e+03,5.424720e+02
2.945735e+03,5.243159e+02
2.957306e+03,5.529512e+02
2.968876e+03,5.194943e+02
2.980447e+03,5.186080e+02
2.992018e+03,4.971374e+02
3.003589e+03,5.047009e+02
3.015160e+03,5.110796e+02
3.026730e+03,4.947764e+02
3.038301e+03,4.901129e+02
3.049872e+03,4.821333e+02
3.061443e+03,4.982294e+02
3.073014e+03,4.720967e+02
3.084584e+03,4.867519e+02
3.096155e+03,4.736776e+02
3.107726e+03,4.786416e+02
3.119297e+03,4.765314e+02
3.130868e+03,4.587007e+02
3.142438e+03,4.826172e+02
3.154009e+03,4.662076e+02
3.165580e+03,4.881836e+02
3.177151e+03,4.814873e+02
3.188722e+03,4.265576e+02
3.200292e+03,5.015397e+02
3.211863e+03,0.000000e+00
3.223434e+03,0.000000e+00
3.235005e+03,0.000000e+00
3.246576e+03,0.000000e+00
3.258146e+03,0.000000e+00
3.269717e+03,0.000000e+00
3.281288e+03,0.000000e+00
3.292859e+03,0.000000e+00
3.304430e+03,0.000000e+00
3.316000e+03,0.000000e+00
3.327571e+03,0.000000e+00
3.339142e+03,0.000000e+00
3.350713e+03,0.000000e+00
3.362284e+03,0.000000e+00
3.373854e+03,0.000000e+00
3.385425e+03,0.000000e+00
3.396996e+03,0.000000e+00
3.408567e+03,0.000000e+00
3.420138e+03,0.000000e+00
3.431708e+03,0.000000e+00
3.443279e+03,0.000000e+00
3.454850e+03,0.000000e+00
3.466421e+03,0.000000e+00
3.477992e+03,0.000000e+00
3.489563e+03,0.000000e+00
3.500169e+03,0.000000e+00