File: RAMAN_data/20012023_r3/black fibre9.CSV
9.931763e+01,0.000000e+00
1.108884e+02,0.000000e+00
1.224592e+02,0.000000e+00
1.340300e+02,0.000000e+00
1.456008e+02,0.000000e+00
1.571716e+02,0.000000e+00
1.687424e+02,0.000000e+00
1.803132e+02,0.000000e+00
1.918840e+02,0.000000e+00
2.034548e+02,5.826507e+03
2.150256e+02,5.819243e+03
2.265964e+02,5.818373e+03
2.381673e+02,5.848099e+03
2.497381e+02,5.837242e+03
2.613088e+02,5.854981e+03
2.728796e+02,5.846201e+03
2.844504e+02,5.877593e+03
2.960212e+02,5.861157e+03
3.075920e+02,5.861331e+03
3.191628e+02,5.857909e+03
3.307336e+02,5.860716e+03
3.423044e+02,5.845736e+03
3.538752e+02,5.858881e+03
3.654461e+02,5.826407e+03
3.770169e+02,5.823166e+03
3.885877e+02,5.810263e+03
4.001585e+02,5.756885e+03
4.117293e+02,5.754511e+03
4.233001e+02,5.760017e+03
4.348709e+02,5.756686e+03
4.464417e+02,5.706408e+03
4.580125e+02,5.692792e+03
4.695833e+02,5.672892e+03
4.811541e+02,5.638736e+03
4.927249e+02,5.590096e+03
5.042957e+02,5.578927e+03
5.158665e+02,5.557842e+03
5.274373e+02,5.534515e+03
5.390081e+02,5.511344e+03
5.505789e+02,5.468352e+03
5.621497e+02,5.448474e+03
5.737205e+02,5.447551e+03
5.852913e+02,5.397881e+03
5.968621e+02,5.373291e+03
6.084329e+02,5.336661e+03
6.200037e+02,5.295608e+03
6.315745e+02,5.280778e+03
6.431453e+02,5.263922e+03
6.547161e+02,5.249836e+03
6.662869e+02,5.211498e+03
6.778577e+02,5.157504e+03
6.894285e+02,5.127952e+03
7.009993e+02,5.116073e+03
7.125701e+02,5.058874e+03
7.241409e+02,5.027802e+03
7.357117e+02,5.012424e+03
7.472825e+02,4.988591e+03
7.588533e+02,4.945305e+03
7.704241e+02,4.893321e+03
7.819949e+02,4.855755e+03
7.935657e+02,4.861577e+03
8.051365e+02,4.782486e+03
8.167073e+02,4.774633e+03
8.282781e+02,4.765053e+03
8.398489e+02,4.720256e+03
8.514197e+02,4.692862e+03
8.629905e+02,4.676879e+03
8.745613e+02,4.636155e+03
8.861321e+02,4.622669e+03
8.977029e+02,4.573486e+03
9.092737e+02,4.532038e+03
9.208445e+02,4.489682e+03
9.324153e+02,4.480869e+03
9.439861e+02,4.432533e+03
9.555569e+02,4.386764e+03
9.671277e+02,4.367397e+03
9.786985e+02,4.353958e+03
9.902693e+02,4.333120e+03
1.001840e+03,4.303330e+03
1.013411e+03,4.271393e+03
1.024982e+03,4.246396e+03
1.036552e+03,4.242299e+03
1.048123e+03,4.214140e+03
1.059694e+03,4.189358e+03
1.071265e+03,4.203491e+03
1.082836e+03,4.205869e+03
1.094406e+03,4.202580e+03
1.105977e+03,4.146893e+03
1.117548e+03,4.143646e+03
1.129119e+03,4.112974e+03
1.140690e+03,4.101306e+03
1.152261e+03,4.118182e+03
1.163831e+03,4.112535e+03
1.175402e+03,4.053828e+03
1.186973e+03,3.986226e+03
1.198544e+03,3.986515e+03
1.210115e+03,3.982598e+03
1.221685e+03,3.920712e+03
1.233256e+03,3.899943e+03
1.244827e+03,3.906885e+03
1.256398e+03,3.871232e+03
1.267969e+03,3.860786e+03
1.279539e+03,3.883678e+03
1.291110e+03,3.897884e+03
1.302681e+03,3.870085e+03
1.314252e+03,3.897349e+03
1.325823e+03,3.921027e+03
1.337393e+03,3.884042e+03
1.348964e+03,3.832304e+03
1.360535e+03,3.757836e+03
1.372106e+03,3.742109e+03
1.383677e+03,3.725878e+03
1.395247e+03,3.700564e+03
1.406818e+03,3.649880e+03
1.418389e+03,3.643940e+03
1.429960e+03,3.642000e+03
1.441531e+03,3.613710e+03
1.453101e+03,3.583461e+03
1.464672e+03,3.565592e+03
1.476243e+03,3.547027e+03
1.487814e+03,3.515210e+03
1.499385e+03,3.493852e+03
1.510955e+03,3.461769e+03
1.522526e+03,3.448678e+03
1.534097e+03,3.444229e+03
1.545668e+03,3.431082e+03
1.557239e+03,3.430323e+03
1.568809e+03,3.417733e+03
1.580380e+03,3.424002e+03
1.591951e+03,3.359835e+03
1.603522e+03,3.364688e+03
1.615093e+03,3.406684e+03
1.626663e+03,3.276921e+03
1.638234e+03,3.239756e+03
1.649805e+03,3.198682e+03
1.661376e+03,3.171117e+03
1.672947e+03,3.132757e+03
1.684517e+03,3.109482e+03
1.696088e+03,3.092314e+03
1.707659e+03,3.060068e+03
1.719230e+03,3.075279e+03
1.730801e+03,3.055738e+03
1.742371e+03,2.996617e+03
1.753942e+03,2.959880e+03
1.765513e+03,2.929977e+03
1.777084e+03,2.905919e+03
1.788655e+03,2.875636e+03
1.800225e+03,2.837079e+03
1.811796e+03,2.819272e+03
1.823367e+03,2.787813e+03
1.834938e+03,2.763980e+03
1.846509e+03,2.752361e+03
1.858079e+03,2.731425e+03
1.869650e+03,2.687806e+03
1.881221e+03,2.636254e+03
1.892792e+03,2.630298e+03
1.904363e+03,2.585539e+03
1.915933e+03,2.557787e+03
1.927504e+03,2.573642e+03
1.939075e+03,2.536141e+03
1.950646e+03,2.482308e+03
1.962217e+03,2.471143e+03
1.973787e+03,2.447504e+03
1.985358e+03,2.404424e+03
1.996929e+03,2.366769e+03
2.008500e+03,2.342765e+03
2.020071e+03,2.316302e+03
2.031641e+03,2.298793e+03
2.043212e+03,2.280282e+03
2.054783e+03,2.250570e+03
2.066354e+03,2.242620e+03
2.077925e+03,2.221079e+03
2.089496e+03,2.175666e+03
2.101066e+03,2.140562e+03
2.112637e+03,2.112722e+03
2.124208e+03,2.116476e+03
2.135779e+03,2.064631e+03
2.147350e+03,2.043096e+03
2.158920e+03,2.010931e+03
2.170491e+03,2.020473e+03
2.182062e+03,1.964001e+03
2.193633e+03,1.951661e+03
2.205204e+03,1.942931e+03
2.216774e+03,1.915279e+03
2.228345e+03,1.875565e+03
2.239916e+03,1.840394e+03
2.251487e+03,1.832941e+03
2.263058e+03,1.820992e+03
2.274628e+03,1.790098e+03
2.286199e+03,1.789742e+03
2.297770e+03,1.780027e+03
2.309341e+03,1.729408e+03
2.320912e+03,1.706242e+03
2.332482e+03,1.697558e+03
2.344053e+03,1.700455e+03
2.355624e+03,1.673542e+03
2.367195e+03,1.636103e+03
2.378766e+03,1.631628e+03
2.390336e+03,1.607597e+03
2.401907e+03,1.596704e+03
2.413478e+03,1.555604e+03
2.425049e+03,1.554674e+03
2.436620e+03,1.542628e+03
2.448190e+03,1.535636e+03
2.459761e+03,1.503782e+03
2.471332e+03,1.464716e+03
2.482903e+03,1.482554e+03
2.494474e+03,1.459250e+03
2.506044e+03,1.425416e+03
2.517615e+03,1.455399e+03
2.529186e+03,1.403696e+03
2.540757e+03,1.395492e+03
2.552328e+03,1.381248e+03
2.563898e+03,1.375222e+03
2.575469e+03,1.396906e+03
2.587040e+03,1.348029e+03
2.598611e+03,1.361622e+03
2.610182e+03,1.328652e+03
2.621752e+03,1.341402e+03
2.633323e+03,1.315654e+03
2.644894e+03,1.314112e+03
2.656465e+03,1.294297e+03
2.668036e+03,1.271293e+03
2.679606e+03,1.241939e+03
2.691177e+03,1.262434e+03
2.702748e+03,1.225692e+03
2.714319e+03,1.241872e+03
2.725890e+03,1.211597e+03
2.737460e+03,1.202828e+03
2.749031e+03,1.182238e+03
2.760602e+03,1.166443e+03
2.772173e+03,1.180855e+03
2.783744e+03,1.157946e+03
2.795314e+03,1.159841e+03
2.806885e+03,1.145305e+03
2.818456e+03,1.131534e+03
2.830027e+03,1.127144e+03
2.841598e+03,1.129237e+03
2.853168e+03,1.143228e+03
2.864739e+03,1.117857e+03
2.876310e+03,1.125951e+03
2.887881e+03,1.154680e+03
2.899452e+03,1.120894e+03
2.911022e+03,1.109860e+03
2.922593e+03,1.060660e+03
2.934164e+03,1.073160e+03
2.945735e+03,1.070512e+03
2.957306e+03,1.137413e+03
2.968876e+03,1.056305e+03
2.980447e+03,1.032062e+03
2.992018e+03,1.054470e+03
3.003589e+03,1.056428e+03
3.015160e+03,1.005918e+03
3.026730e+03,9.781734e+02
3.038301e+03,9.900061e+02
3.049872e+03,1.012214e+03
3.061443e+03,9.927334e+02
3.073014e+03,9.986770e+02
3.084584e+03,9.765038e+02
3.096155e+03,9.730858e+02
3.107726e+03,9.543359e+02
3.119297e+03,9.797386e+02
3.130868e+03,9.931299e+02
3.142438e+03,9.880699e+02
3.154009e+03,9.942190e+02
3.165580e+03,9.885958e+02
3.177151e+03,9.496857e+02
3.188722e+03,9.642089e+02
3.200292e+03,9.680911e+02
3.211863e+03,0.000000e+00
3.223434e+03,0.000000e+00
3.235005e+03,0.000000e+00
3.246576e+03,0.000000e+00
3.258146e+03,0.000000e+00
3.269717e+03,0.000000e+00
3.281288e+03,0.000000e+00
3.292859e+03,0.000000e+00
3.304430e+03,0.000000e+00
3.316000e+03,0.000000e+00
3.327571e+03,0.000000e+00
3.339142e+03,0.000000e+00
3.350713e+03,0.000000e+00
3.362284e+03,0.000000e+00
3.373854e+03,0.000000e+00
3.385425e+03,0.000000e+00
3.396996e+03,0.000000e+00
3.408567e+03,0.000000e+00
3.420138e+03,0.000000e+00
3.431708e+03,0.000000e+00
3.443279e+03,0.000000e+00
3.454850e+03,0.000000e+00
3.466421e+03,0.000000e+00
3.477992e+03,0.000000e+00
3.489563e+03,0.000000e+00
3.500169e+03,0.000000e+00