File: RAMAN_data/20012023_r3/black fibre2.CSV
9.931763e+01,0.000000e+00
1.108884e+02,0.000000e+00
1.224592e+02,0.000000e+00
1.340300e+02,0.000000e+00
1.456008e+02,0.000000e+00
1.571716e+02,0.000000e+00
1.687424e+02,0.000000e+00
1.803132e+02,0.000000e+00
1.918840e+02,0.000000e+00
2.034548e+02,2.566622e+03
2.150256e+02,2.565538e+03
2.265964e+02,2.546880e+03
2.381673e+02,2.559513e+03
2.497381e+02,2.560699e+03
2.613088e+02,2.544853e+03
2.728796e+02,2.549506e+03
2.844504e+02,2.559304e+03
2.960212e+02,2.559249e+03
3.075920e+02,2.562926e+03
3.191628e+02,2.550662e+03
3.307336e+02,2.550148e+03
3.423044e+02,2.544484e+03
3.538752e+02,2.533482e+03
3.654461e+02,2.527120e+03
3.770169e+02,2.561321e+03
3.885877e+02,2.511237e+03
4.001585e+02,2.521116e+03
4.117293e+02,2.514691e+03
4.233001e+02,2.503639e+03
4.348709e+02,2.504963e+03
4.464417e+02,2.495803e+03
4.580125e+02,2.497962e+03
4.695833e+02,2.473995e+03
4.811541e+02,2.444463e+03
4.927249e+02,2.441624e+03
5.042957e+02,2.439828e+03
5.158665e+02,2.449453e+03
5.274373e+02,2.439298e+03
5.390081e+02,2.394976e+03
5.505789e+02,2.389545e+03
5.621497e+02,2.379833e+03
5.737205e+02,2.374063e+03
5.852913e+02,2.347705e+03
5.968621e+02,2.342267e+03
6.084329e+02,2.347231e+03
6.200037e+02,2.321929e+03
6.315745e+02,2.318629e+03
6.431453e+02,2.299625e+03
6.547161e+02,2.290138e+03
6.662869e+02,2.271960e+03
6.778577e+02,2.244414e+03
6.894285e+02,2.237733e+03
7.009993e+02,2.246300e+03
7.125701e+02,2.222164e+03
7.241409e+02,2.221901e+03
7.357117e+02,2.204222e+03
7.472825e+02,2.177404e+03
7.588533e+02,2.163094e+03
7.704241e+02,2.160296e+03
7.819949e+02,2.138234e+03
7.935657e+02,2.141528e+03
8.051365e+02,2.123984e+03
8.167073e+02,2.113306e+03
8.282781e+02,2.093680e+03
8.398489e+02,2.088653e+03
8.514197e+02,2.080100e+03
8.629905e+02,2.051407e+03
8.745613e+02,2.039139e+03
8.861321e+02,2.037445e+03
8.977029e+02,2.021415e+03
9.092737e+02,1.991328e+03
9.208445e+02,1.995118e+03
9.324153e+02,1.977828e+03
9.439861e+02,1.976511e+03
9.555569e+02,1.947766e+03
9.671277e+02,1.931634e+03
9.786985e+02,1.930693e+03
9.902693e+02,1.911019e+03
1.001840e+03,1.895898e+03
1.013411e+03,1.892778e+03
1.024982e+03,1.883334e+03
1.036552e+03,1.875545e+03
1.048123e+03,1.862339e+03
1.059694e+03,1.861894e+03
1.071265e+03,1.879373e+03
1.082836e+03,1.851633e+03
1.094406e+03,1.884376e+03
1.105977e+03,1.832521e+03
1.117548e+03,1.842684e+03
1.129119e+03,1.824626e+03
1.140690e+03,1.806378e+03
1.152261e+03,1.818889e+03
1.163831e+03,1.814690e+03
1.175402e+03,1.782559e+03
1.186973e+03,1.746192e+03
1.198544e+03,1.753773e+03
1.210115e+03,1.735695e+03
1.221685e+03,1.705803e+03
1.233256e+03,1.704483e+03
1.244827e+03,1.702791e+03
1.256398e+03,1.682038e+03
1.267969e+03,1.663458e+03
1.279539e+03,1.703725e+03
1.291110e+03,1.685688e+03
1.302681e+03,1.690973e+03
1.314252e+03,1.692082e+03
1.325823e+03,1.694848e+03
1.337393e+03,1.679583e+03
1.348964e+03,1.668168e+03
1.360535e+03,1.634230e+03
1.372106e+03,1.627615e+03
1.383677e+03,1.615984e+03
1.395247e+03,1.582402e+03
1.406818e+03,1.573239e+03
1.418389e+03,1.564827e+03
1.429960e+03,1.559332e+03
1.441531e+03,1.539438e+03
1.453101e+03,1.526996e+03
1.464672e+03,1.516068e+03
1.476243e+03,1.514429e+03
1.487814e+03,1.495781e+03
1.499385e+03,1.471917e+03
1.510955e+03,1.458308e+03
1.522526e+03,1.469652e+03
1.534097e+03,1.457472e+03
1.545668e+03,1.456631e+03
1.557239e+03,1.444596e+03
1.568809e+03,1.446266e+03
1.580380e+03,1.443152e+03
1.591951e+03,1.416369e+03
1.603522e+03,1.426625e+03
1.615093e+03,1.445587e+03
1.626663e+03,1.372785e+03
1.638234e+03,1.363510e+03
1.649805e+03,1.355618e+03
1.661376e+03,1.332171e+03
1.672947e+03,1.334058e+03
1.684517e+03,1.304502e+03
1.696088e+03,1.310822e+03
1.707659e+03,1.294678e+03
1.719230e+03,1.299539e+03
1.730801e+03,1.292475e+03
1.742371e+03,1.272538e+03
1.753942e+03,1.241030e+03
1.765513e+03,1.242734e+03
1.777084e+03,1.228698e+03
1.788655e+03,1.211173e+03
1.800225e+03,1.207457e+03
1.811796e+03,1.205495e+03
1.823367e+03,1.180413e+03
1.834938e+03,1.167871e+03
1.846509e+03,1.163473e+03
1.858079e+03,1.143454e+03
1.869650e+03,1.145478e+03
1.881221e+03,1.128418e+03
1.892792e+03,1.105084e+03
1.904363e+03,1.111179e+03
1.915933e+03,1.102698e+03
1.927504e+03,1.092342e+03
1.939075e+03,1.071185e+03
1.950646e+03,1.079059e+03
1.962217e+03,1.043511e+03
1.973787e+03,1.040043e+03
1.985358e+03,1.026758e+03
1.996929e+03,1.030540e+03
2.008500e+03,9.890350e+02
2.020071e+03,9.855525e+02
2.031641e+03,9.846330e+02
2.043212e+03,9.713039e+02
2.054783e+03,9.595569e+02
2.066354e+03,9.466326e+02
2.077925e+03,9.299848e+02
2.089496e+03,9.309601e+02
2.101066e+03,9.143341e+02
2.112637e+03,8.996406e+02
2.124208e+03,9.019257e+02
2.135779e+03,8.679153e+02
2.147350e+03,8.662587e+02
2.158920e+03,8.710906e+02
2.170491e+03,8.606200e+02
2.182062e+03,8.490078e+02
2.193633e+03,8.410221e+02
2.205204e+03,8.293427e+02
2.216774e+03,8.313788e+02
2.228345e+03,7.956088e+02
2.239916e+03,7.888154e+02
2.251487e+03,7.791344e+02
2.263058e+03,7.697833e+02
2.274628e+03,7.606301e+02
2.286199e+03,7.588445e+02
2.297770e+03,7.499782e+02
2.309341e+03,7.367787e+02
2.320912e+03,7.336551e+02
2.332482e+03,7.184714e+02
2.344053e+03,7.234872e+02
2.355624e+03,7.001056e+02
2.367195e+03,6.914279e+02
2.378766e+03,7.031657e+02
2.390336e+03,6.860790e+02
2.401907e+03,6.817746e+02
2.413478e+03,6.664240e+02
2.425049e+03,6.551042e+02
2.436620e+03,6.587516e+02
2.448190e+03,6.404959e+02
2.459761e+03,6.396928e+02
2.471332e+03,6.327673e+02
2.482903e+03,6.285186e+02
2.494474e+03,6.095065e+02
2.506044e+03,6.186682e+02
2.517615e+03,6.139347e+02
2.529186e+03,6.059766e+02
2.540757e+03,5.963264e+02
2.552328e+03,5.859929e+02
2.563898e+03,5.937385e+02
2.575469e+03,5.909658e+02
2.587040e+03,5.826032e+02
2.598611e+03,5.687292e+02
2.610182e+03,5.756720e+02
2.621752e+03,5.652440e+02
2.633323e+03,5.509279e+02
2.644894e+03,5.441046e+02
2.656465e+03,5.456772e+02
2.668036e+03,5.437205e+02
2.679606e+03,5.493952e+02
2.691177e+03,5.273719e+02
2.702748e+03,5.258118e+02
2.714319e+03,5.312332e+02
2.725890e+03,5.279692e+02
2.737460e+03,5.136538e+02
2.749031e+03,5.184308e+02
2.760602e+03,4.978801e+02
2.772173e+03,5.044747e+02
2.783744e+03,4.992231e+02
2.795314e+03,4.928289e+02
2.806885e+03,4.951293e+02
2.818456e+03,4.952390e+02
2.830027e+03,4.868231e+02
2.841598e+03,4.836642e+02
2.853168e+03,4.970379e+02
2.864739e+03,4.766782e+02
2.876310e+03,4.774322e+02
2.887881e+03,5.101294e+02
2.899452e+03,5.103178e+02
2.911022e+03,5.083383e+02
2.922593e+03,4.673072e+02
2.934164e+03,4.792707e+02
2.945735e+03,4.830035e+02
2.957306e+03,4.853393e+02
2.968876e+03,4.596364e+02
2.980447e+03,4.361194e+02
2.992018e+03,4.254977e+02
3.003589e+03,4.307489e+02
3.015160e+03,4.256507e+02
3.026730e+03,4.210079e+02
3.038301e+03,4.248069e+02
3.049872e+03,4.297321e+02
3.061443e+03,4.126979e+02
3.073014e+03,4.103865e+02
3.084584e+03,4.088418e+02
3.096155e+03,4.249603e+02
3.107726e+03,4.281877e+02
3.119297e+03,4.347498e+02
3.130868e+03,4.124241e+02
3.142438e+03,4.127579e+02
3.154009e+03,4.194595e+02
3.165580e+03,4.131877e+02
3.177151e+03,4.137325e+02
3.188722e+03,4.058399e+02
3.200292e+03,4.379549e+02
3.211863e+03,0.000000e+00
3.223434e+03,0.000000e+00
3.235005e+03,0.000000e+00
3.246576e+03,0.000000e+00
3.258146e+03,0.000000e+00
3.269717e+03,0.000000e+00
3.281288e+03,0.000000e+00
3.292859e+03,0.000000e+00
3.304430e+03,0.000000e+00
3.316000e+03,0.000000e+00
3.327571e+03,0.000000e+00
3.339142e+03,0.000000e+00
3.350713e+03,0.000000e+00
3.362284e+03,0.000000e+00
3.373854e+03,0.000000e+00
3.385425e+03,0.000000e+00
3.396996e+03,0.000000e+00
3.408567e+03,0.000000e+00
3.420138e+03,0.000000e+00
3.431708e+03,0.000000e+00
3.443279e+03,0.000000e+00
3.454850e+03,0.000000e+00
3.466421e+03,0.000000e+00
3.477992e+03,0.000000e+00
3.489563e+03,0.000000e+00
3.500169e+03,0.000000e+00