File: RAMAN_data/20012023_r3/black fibre8.CSV
9.931763e+01,0.000000e+00
1.108884e+02,0.000000e+00
1.224592e+02,0.000000e+00
1.340300e+02,0.000000e+00
1.456008e+02,0.000000e+00
1.571716e+02,0.000000e+00
1.687424e+02,0.000000e+00
1.803132e+02,0.000000e+00
1.918840e+02,0.000000e+00
2.034548e+02,4.404446e+03
2.150256e+02,4.417554e+03
2.265964e+02,4.393584e+03
2.381673e+02,4.418995e+03
2.497381e+02,4.425100e+03
2.613088e+02,4.433749e+03
2.728796e+02,4.432761e+03
2.844504e+02,4.437233e+03
2.960212e+02,4.431241e+03
3.075920e+02,4.431922e+03
3.191628e+02,4.426703e+03
3.307336e+02,4.431923e+03
3.423044e+02,4.399051e+03
3.538752e+02,4.405039e+03
3.654461e+02,4.393978e+03
3.770169e+02,4.419779e+03
3.885877e+02,4.376409e+03
4.001585e+02,4.373064e+03
4.117293e+02,4.344782e+03
4.233001e+02,4.331812e+03
4.348709e+02,4.354750e+03
4.464417e+02,4.308184e+03
4.580125e+02,4.293247e+03
4.695833e+02,4.280843e+03
4.811541e+02,4.258361e+03
4.927249e+02,4.225547e+03
5.042957e+02,4.215825e+03
5.158665e+02,4.202840e+03
5.274373e+02,4.182618e+03
5.390081e+02,4.152450e+03
5.505789e+02,4.145063e+03
5.621497e+02,4.117897e+03
5.737205e+02,4.111039e+03
5.852913e+02,4.070021e+03
5.968621e+02,4.057392e+03
6.084329e+02,4.055705e+03
6.200037e+02,4.024981e+03
6.315745e+02,4.009171e+03
6.431453e+02,3.965490e+03
6.547161e+02,3.957414e+03
6.662869e+02,3.931295e+03
6.778577e+02,3.896840e+03
6.894285e+02,3.857459e+03
7.009993e+02,3.850361e+03
7.125701e+02,3.821902e+03
7.241409e+02,3.792075e+03
7.357117e+02,3.773327e+03
7.472825e+02,3.748462e+03
7.588533e+02,3.734465e+03
7.704241e+02,3.680187e+03
7.819949e+02,3.668532e+03
7.935657e+02,3.647952e+03
8.051365e+02,3.631290e+03
8.167073e+02,3.597545e+03
8.282781e+02,3.579630e+03
8.398489e+02,3.556331e+03
8.514197e+02,3.551861e+03
8.629905e+02,3.503367e+03
8.745613e+02,3.484741e+03
8.861321e+02,3.485522e+03
8.977029e+02,3.447670e+03
9.092737e+02,3.412169e+03
9.208445e+02,3.387352e+03
9.324153e+02,3.360184e+03
9.439861e+02,3.334669e+03
9.555569e+02,3.325128e+03
9.671277e+02,3.301848e+03
9.786985e+02,3.293511e+03
9.902693e+02,3.259878e+03
1.001840e+03,3.235918e+03
1.013411e+03,3.203574e+03
1.024982e+03,3.196000e+03
1.036552e+03,3.184948e+03
1.048123e+03,3.161524e+03
1.059694e+03,3.158219e+03
1.071265e+03,3.156064e+03
1.082836e+03,3.136919e+03
1.094406e+03,3.149851e+03
1.105977e+03,3.127702e+03
1.117548e+03,3.100526e+03
1.129119e+03,3.067805e+03
1.140690e+03,3.048765e+03
1.152261e+03,3.066347e+03
1.163831e+03,3.045740e+03
1.175402e+03,3.012759e+03
1.186973e+03,2.973112e+03
1.198544e+03,2.972805e+03
1.210115e+03,2.940664e+03
1.221685e+03,2.915969e+03
1.233256e+03,2.893249e+03
1.244827e+03,2.912713e+03
1.256398e+03,2.873444e+03
1.267969e+03,2.865754e+03
1.279539e+03,2.873969e+03
1.291110e+03,2.873026e+03
1.302681e+03,2.868322e+03
1.314252e+03,2.852362e+03
1.325823e+03,2.863599e+03
1.337393e+03,2.851793e+03
1.348964e+03,2.796237e+03
1.360535e+03,2.771784e+03
1.372106e+03,2.777096e+03
1.383677e+03,2.757458e+03
1.395247e+03,2.724685e+03
1.406818e+03,2.698627e+03
1.418389e+03,2.688980e+03
1.429960e+03,2.670343e+03
1.441531e+03,2.648382e+03
1.453101e+03,2.632405e+03
1.464672e+03,2.625632e+03
1.476243e+03,2.586801e+03
1.487814e+03,2.581949e+03
1.499385e+03,2.557452e+03
1.510955e+03,2.545146e+03
1.522526e+03,2.537900e+03
1.534097e+03,2.512720e+03
1.545668e+03,2.503435e+03
1.557239e+03,2.501737e+03
1.568809e+03,2.489934e+03
1.580380e+03,2.494233e+03
1.591951e+03,2.452063e+03
1.603522e+03,2.453620e+03
1.615093e+03,2.476445e+03
1.626663e+03,2.385107e+03
1.638234e+03,2.352441e+03
1.649805e+03,2.335319e+03
1.661376e+03,2.327821e+03
1.672947e+03,2.298742e+03
1.684517e+03,2.276691e+03
1.696088e+03,2.276797e+03
1.707659e+03,2.261740e+03
1.719230e+03,2.247925e+03
1.730801e+03,2.232589e+03
1.742371e+03,2.188250e+03
1.753942e+03,2.162078e+03
1.765513e+03,2.169802e+03
1.777084e+03,2.133353e+03
1.788655e+03,2.111669e+03
1.800225e+03,2.085687e+03
1.811796e+03,2.072019e+03
1.823367e+03,2.037541e+03
1.834938e+03,2.036235e+03
1.846509e+03,2.018728e+03
1.858079e+03,1.987961e+03
1.869650e+03,1.988503e+03
1.881221e+03,1.956586e+03
1.892792e+03,1.944140e+03
1.904363e+03,1.921503e+03
1.915933e+03,1.900084e+03
1.927504e+03,1.870774e+03
1.939075e+03,1.852178e+03
1.950646e+03,1.850511e+03
1.962217e+03,1.822832e+03
1.973787e+03,1.810494e+03
1.985358e+03,1.786812e+03
1.996929e+03,1.761229e+03
2.008500e+03,1.729837e+03
2.020071e+03,1.738844e+03
2.031641e+03,1.703512e+03
2.043212e+03,1.672691e+03
2.054783e+03,1.657819e+03
2.066354e+03,1.639583e+03
2.077925e+03,1.617253e+03
2.089496e+03,1.599099e+03
2.101066e+03,1.585664e+03
2.112637e+03,1.572601e+03
2.124208e+03,1.560482e+03
2.135779e+03,1.534854e+03
2.147350e+03,1.512819e+03
2.158920e+03,1.501177e+03
2.170491e+03,1.481217e+03
2.182062e+03,1.451779e+03
2.193633e+03,1.458992e+03
2.205204e+03,1.427355e+03
2.216774e+03,1.422705e+03
2.228345e+03,1.388451e+03
2.239916e+03,1.373068e+03
2.251487e+03,1.364451e+03
2.263058e+03,1.339294e+03
2.274628e+03,1.304371e+03
2.286199e+03,1.319739e+03
2.297770e+03,1.300801e+03
2.309341e+03,1.286097e+03
2.320912e+03,1.270770e+03
2.332482e+03,1.253963e+03
2.344053e+03,1.233668e+03
2.355624e+03,1.214130e+03
2.367195e+03,1.207747e+03
2.378766e+03,1.196915e+03
2.390336e+03,1.180321e+03
2.401907e+03,1.176938e+03
2.413478e+03,1.168839e+03
2.425049e+03,1.137299e+03
2.436620e+03,1.130726e+03
2.448190e+03,1.108404e+03
2.459761e+03,1.099952e+03
2.471332e+03,1.085209e+03
2.482903e+03,1.087119e+03
2.494474e+03,1.041856e+03
2.506044e+03,1.058934e+03
2.517615e+03,1.047142e+03
2.529186e+03,1.048249e+03
2.540757e+03,1.021094e+03
2.552328e+03,1.034207e+03
2.563898e+03,1.025902e+03
2.575469e+03,1.020613e+03
2.587040e+03,9.893445e+02
2.598611e+03,9.946261e+02
2.610182e+03,9.677523e+02
2.621752e+03,9.619401e+02
2.633323e+03,9.618823e+02
2.644894e+03,9.521396e+02
2.656465e+03,9.242601e+02
2.668036e+03,9.519045e+02
2.679606e+03,9.298840e+02
2.691177e+03,9.228234e+02
2.702748e+03,9.108926e+02
2.714319e+03,9.028314e+02
2.725890e+03,8.931261e+02
2.737460e+03,8.866178e+02
2.749031e+03,8.763182e+02
2.760602e+03,8.703997e+02
2.772173e+03,8.774780e+02
2.783744e+03,8.674421e+02
2.795314e+03,8.377957e+02
2.806885e+03,8.393624e+02
2.818456e+03,8.320065e+02
2.830027e+03,8.371849e+02
2.841598e+03,8.257000e+02
2.853168e+03,8.489150e+02
2.864739e+03,8.251900e+02
2.876310e+03,8.626459e+02
2.887881e+03,8.574271e+02
2.899452e+03,8.516316e+02
2.911022e+03,8.405223e+02
2.922593e+03,8.156898e+02
2.934164e+03,8.330082e+02
2.945735e+03,8.052741e+02
2.957306e+03,8.328682e+02
2.968876e+03,7.944537e+02
2.980447e+03,7.574814e+02
2.992018e+03,7.640696e+02
3.003589e+03,7.612525e+02
3.015160e+03,7.213835e+02
3.026730e+03,7.365009e+02
3.038301e+03,7.562330e+02
3.049872e+03,7.341070e+02
3.061443e+03,7.197286e+02
3.073014e+03,7.330801e+02
3.084584e+03,7.055397e+02
3.096155e+03,7.317787e+02
3.107726e+03,6.874423e+02
3.119297e+03,7.601331e+02
3.130868e+03,7.295678e+02
3.142438e+03,6.762123e+02
3.154009e+03,7.221056e+02
3.165580e+03,7.230258e+02
3.177151e+03,6.719870e+02
3.188722e+03,7.136901e+02
3.200292e+03,7.346490e+02
3.211863e+03,0.000000e+00
3.223434e+03,0.000000e+00
3.235005e+03,0.000000e+00
3.246576e+03,0.000000e+00
3.258146e+03,0.000000e+00
3.269717e+03,0.000000e+00
3.281288e+03,0.000000e+00
3.292859e+03,0.000000e+00
3.304430e+03,0.000000e+00
3.316000e+03,0.000000e+00
3.327571e+03,0.000000e+00
3.339142e+03,0.000000e+00
3.350713e+03,0.000000e+00
3.362284e+03,0.000000e+00
3.373854e+03,0.000000e+00
3.385425e+03,0.000000e+00
3.396996e+03,0.000000e+00
3.408567e+03,0.000000e+00
3.420138e+03,0.000000e+00
3.431708e+03,0.000000e+00
3.443279e+03,0.000000e+00
3.454850e+03,0.000000e+00
3.466421e+03,0.000000e+00
3.477992e+03,0.000000e+00
3.489563e+03,0.000000e+00
3.500169e+03,0.000000e+00