File: RAMAN_data/20012023_r3/black fibre5.CSV
9.931763e+01,0.000000e+00
1.108884e+02,0.000000e+00
1.224592e+02,0.000000e+00
1.340300e+02,0.000000e+00
1.456008e+02,0.000000e+00
1.571716e+02,0.000000e+00
1.687424e+02,0.000000e+00
1.803132e+02,0.000000e+00
1.918840e+02,0.000000e+00
2.034548e+02,1.351751e+03
2.150256e+02,1.346486e+03
2.265964e+02,1.334214e+03
2.381673e+02,1.343427e+03
2.497381e+02,1.358319e+03
2.613088e+02,1.350602e+03
2.728796e+02,1.353822e+03
2.844504e+02,1.337301e+03
2.960212e+02,1.358295e+03
3.075920e+02,1.364897e+03
3.191628e+02,1.358301e+03
3.307336e+02,1.366843e+03
3.423044e+02,1.367960e+03
3.538752e+02,1.356871e+03
3.654461e+02,1.353404e+03
3.770169e+02,1.377653e+03
3.885877e+02,1.353122e+03
4.001585e+02,1.334254e+03
4.117293e+02,1.330975e+03
4.233001e+02,1.335584e+03
4.348709e+02,1.345472e+03
4.464417e+02,1.338854e+03
4.580125e+02,1.339190e+03
4.695833e+02,1.322409e+03
4.811541e+02,1.295615e+03
4.927249e+02,1.292801e+03
5.042957e+02,1.300797e+03
5.158665e+02,1.304587e+03
5.274373e+02,1.290317e+03
5.390081e+02,1.277320e+03
5.505789e+02,1.272433e+03
5.621497e+02,1.276690e+03
5.737205e+02,1.262682e+03
5.852913e+02,1.256669e+03
5.968621e+02,1.250824e+03
6.084329e+02,1.248186e+03
6.200037e+02,1.243103e+03
6.315745e+02,1.232146e+03
6.431453e+02,1.224770e+03
6.547161e+02,1.210591e+03
6.662869e+02,1.213360e+03
6.778577e+02,1.200452e+03
6.894285e+02,1.192211e+03
7.009993e+02,1.201776e+03
7.125701e+02,1.190397e+03
7.241409e+02,1.185974e+03
7.357117e+02,1.176292e+03
7.472825e+02,1.181890e+03
7.588533e+02,1.171595e+03
7.704241e+02,1.142292e+03
7.819949e+02,1.141284e+03
7.935657e+02,1.134746e+03
8.051365e+02,1.132909e+03
8.167073e+02,1.122119e+03
8.282781e+02,1.120860e+03
8.398489e+02,1.117547e+03
8.514197e+02,1.113534e+03
8.629905e+02,1.106988e+03
8.745613e+02,1.094548e+03
8.861321e+02,1.099962e+03
8.977029e+02,1.086431e+03
9.092737e+02,1.076863e+03
9.208445e+02,1.061692e+03
9.324153e+02,1.054930e+03
9.439861e+02,1.045303e+03
9.555569e+02,1.032706e+03
9.671277e+02,1.046528e+03
9.786985e+02,1.035761e+03
9.902693e+02,1.025058e+03
1.001840e+03,1.028056e+03
1.013411e+03,1.010836e+03
1.024982e+03,1.007376e+03
1.036552e+03,1.002511e+03
1.048123e+03,1.002856e+03
1.059694e+03,1.008996e+03
1.071265e+03,1.008695e+03
1.082836e+03,1.013283e+03
1.094406e+03,1.047056e+03
1.105977e+03,1.006988e+03
1.117548e+03,1.017457e+03
1.129119e+03,9.907559e+02
1.140690e+03,9.813846e+02
1.152261e+03,9.901953e+02
1.163831e+03,9.771550e+02
1.175402e+03,9.618813e+02
1.186973e+03,9.418083e+02
1.198544e+03,9.444699e+02
1.210115e+03,9.397031e+02
1.221685e+03,9.231971e+02
1.233256e+03,9.092118e+02
1.244827e+03,9.175319e+02
1.256398e+03,9.092709e+02
1.267969e+03,9.043094e+02
1.279539e+03,9.165564e+02
1.291110e+03,9.230257e+02
1.302681e+03,9.254035e+02
1.314252e+03,9.260683e+02
1.325823e+03,9.405160e+02
1.337393e+03,9.315811e+02
1.348964e+03,9.111495e+02
1.360535e+03,8.927473e+02
1.372106e+03,8.876264e+02
1.383677e+03,8.826614e+02
1.395247e+03,8.677151e+02
1.406818e+03,8.578092e+02
1.418389e+03,8.631406e+02
1.429960e+03,8.515699e+02
1.441531e+03,8.405174e+02
1.453101e+03,8.268585e+02
1.464672e+03,8.303976e+02
1.476243e+03,8.346526e+02
1.487814e+03,8.172916e+02
1.499385e+03,7.968699e+02
1.510955e+03,7.987961e+02
1.522526e+03,8.015449e+02
1.534097e+03,7.932260e+02
1.545668e+03,7.841327e+02
1.557239e+03,7.947683e+02
1.568809e+03,7.958213e+02
1.580380e+03,8.026917e+02
1.591951e+03,7.758383e+02
1.603522e+03,7.865352e+02
1.615093e+03,8.017448e+02
1.626663e+03,7.541584e+02
1.638234e+03,7.456689e+02
1.649805e+03,7.445427e+02
1.661376e+03,7.358581e+02
1.672947e+03,7.345760e+02
1.684517e+03,7.215648e+02
1.696088e+03,7.108487e+02
1.707659e+03,7.097172e+02
1.719230e+03,7.087064e+02
1.730801e+03,7.154518e+02
1.742371e+03,6.959456e+02
1.753942e+03,6.763749e+02
1.765513e+03,6.795460e+02
1.777084e+03,6.635564e+02
1.788655e+03,6.665996e+02
1.800225e+03,6.547003e+02
1.811796e+03,6.523109e+02
1.823367e+03,6.356295e+02
1.834938e+03,6.328674e+02
1.846509e+03,6.282001e+02
1.858079e+03,6.179898e+02
1.869650e+03,6.211003e+02
1.881221e+03,6.105001e+02
1.892792e+03,6.136044e+02
1.904363e+03,5.903190e+02
1.915933e+03,5.943105e+02
1.927504e+03,5.794244e+02
1.939075e+03,5.771097e+02
1.950646e+03,5.604431e+02
1.962217e+03,5.693788e+02
1.973787e+03,5.617359e+02
1.985358e+03,5.541059e+02
1.996929e+03,5.434107e+02
2.008500e+03,5.354977e+02
2.020071e+03,5.296349e+02
2.031641e+03,5.217607e+02
2.043212e+03,5.193336e+02
2.054783e+03,5.129628e+02
2.066354e+03,5.099325e+02
2.077925e+03,5.018681e+02
2.089496e+03,5.015732e+02
2.101066e+03,4.872694e+02
2.112637e+03,4.877341e+02
2.124208e+03,4.920622e+02
2.135779e+03,4.819085e+02
2.147350e+03,4.696508e+02
2.158920e+03,4.676706e+02
2.170491e+03,4.652801e+02
2.182062e+03,4.480405e+02
2.193633e+03,4.424533e+02
2.205204e+03,4.489074e+02
2.216774e+03,4.432631e+02
2.228345e+03,4.361603e+02
2.239916e+03,4.315864e+02
2.251487e+03,4.294872e+02
2.263058e+03,4.227807e+02
2.274628e+03,3.978515e+02
2.286199e+03,4.013725e+02
2.297770e+03,3.955941e+02
2.309341e+03,3.929505e+02
2.320912e+03,3.946595e+02
2.332482e+03,3.887306e+02
2.344053e+03,3.849492e+02
2.355624e+03,3.821808e+02
2.367195e+03,3.706686e+02
2.378766e+03,3.720996e+02
2.390336e+03,3.633371e+02
2.401907e+03,3.661138e+02
2.413478e+03,3.520805e+02
2.425049e+03,3.498292e+02
2.436620e+03,3.471364e+02
2.448190e+03,3.424964e+02
2.459761e+03,3.422819e+02
2.471332e+03,3.404563e+02
2.482903e+03,3.387614e+02
2.494474e+03,3.352281e+02
2.506044e+03,3.236442e+02
2.517615e+03,3.242249e+02
2.529186e+03,3.169595e+02
2.540757e+03,3.263999e+02
2.552328e+03,3.259999e+02
2.563898e+03,3.246488e+02
2.575469e+03,3.220949e+02
2.587040e+03,3.088003e+02
2.598611e+03,3.084977e+02
2.610182e+03,3.076653e+02
2.621752e+03,3.006087e+02
2.633323e+03,2.982487e+02
2.644894e+03,2.973888e+02
2.656465e+03,2.981747e+02
2.668036e+03,2.960920e+02
2.679606e+03,2.893255e+02
2.691177e+03,2.912619e+02
2.702748e+03,2.844140e+02
2.714319e+03,2.891554e+02
2.725890e+03,2.802528e+02
2.737460e+03,2.802133e+02
2.749031e+03,2.809286e+02
2.760602e+03,2.816992e+02
2.772173e+03,2.827184e+02
2.783744e+03,2.672727e+02
2.795314e+03,2.486513e+02
2.806885e+03,2.644495e+02
2.818456e+03,2.695976e+02
2.830027e+03,2.764596e+02
2.841598e+03,2.685044e+02
2.853168e+03,2.779481e+02
2.864739e+03,2.708506e+02
2.876310e+03,2.781218e+02
2.887881e+03,2.992125e+02
2.899452e+03,3.039838e+02
2.911022e+03,3.068692e+02
2.922593e+03,2.790814e+02
2.934164e+03,2.780290e+02
2.945735e+03,2.901727e+02
2.957306e+03,3.027273e+02
2.968876e+03,2.588697e+02
2.980447e+03,2.336615e+02
2.992018e+03,2.514496e+02
3.003589e+03,2.416666e+02
3.015160e+03,2.367632e+02
3.026730e+03,2.289268e+02
3.038301e+03,2.308220e+02
3.049872e+03,2.342630e+02
3.061443e+03,2.460988e+02
3.073014e+03,2.316678e+02
3.084584e+03,2.250653e+02
3.096155e+03,2.303049e+02
3.107726e+03,2.089235e+02
3.119297e+03,2.278604e+02
3.130868e+03,2.205954e+02
3.142438e+03,2.370060e+02
3.154009e+03,2.418839e+02
3.165580e+03,2.406861e+02
3.177151e+03,2.301492e+02
3.188722e+03,2.420198e+02
3.200292e+03,2.573833e+02
3.211863e+03,0.000000e+00
3.223434e+03,0.000000e+00
3.235005e+03,0.000000e+00
3.246576e+03,0.000000e+00
3.258146e+03,0.000000e+00
3.269717e+03,0.000000e+00
3.281288e+03,0.000000e+00
3.292859e+03,0.000000e+00
3.304430e+03,0.000000e+00
3.316000e+03,0.000000e+00
3.327571e+03,0.000000e+00
3.339142e+03,0.000000e+00
3.350713e+03,0.000000e+00
3.362284e+03,0.000000e+00
3.373854e+03,0.000000e+00
3.385425e+03,0.000000e+00
3.396996e+03,0.000000e+00
3.408567e+03,0.000000e+00
3.420138e+03,0.000000e+00
3.431708e+03,0.000000e+00
3.443279e+03,0.000000e+00
3.454850e+03,0.000000e+00
3.466421e+03,0.000000e+00
3.477992e+03,0.000000e+00
3.489563e+03,0.000000e+00
3.500169e+03,0.000000e+00