File: RAMAN_data/20012023_r3/black fibre12.CSV
9.931763e+01,0.000000e+00
1.108884e+02,0.000000e+00
1.224592e+02,0.000000e+00
1.340300e+02,0.000000e+00
1.456008e+02,0.000000e+00
1.571716e+02,0.000000e+00
1.687424e+02,0.000000e+00
1.803132e+02,0.000000e+00
1.918840e+02,0.000000e+00
2.034548e+02,2.684872e+03
2.150256e+02,2.697020e+03
2.265964e+02,2.696321e+03
2.381673e+02,2.725894e+03
2.497381e+02,2.736547e+03
2.613088e+02,2.739182e+03
2.728796e+02,2.749960e+03
2.844504e+02,2.773404e+03
2.960212e+02,2.749288e+03
3.075920e+02,2.753936e+03
3.191628e+02,2.768367e+03
3.307336e+02,2.767116e+03
3.423044e+02,2.771567e+03
3.538752e+02,2.786527e+03
3.654461e+02,2.782395e+03
3.770169e+02,2.800512e+03
3.885877e+02,2.783073e+03
4.001585e+02,2.770775e+03
4.117293e+02,2.775586e+03
4.233001e+02,2.762583e+03
4.348709e+02,2.796686e+03
4.464417e+02,2.751867e+03
4.580125e+02,2.756493e+03
4.695833e+02,2.743328e+03
4.811541e+02,2.747868e+03
4.927249e+02,2.747879e+03
5.042957e+02,2.731567e+03
5.158665e+02,2.724391e+03
5.274373e+02,2.725907e+03
5.390081e+02,2.728322e+03
5.505789e+02,2.697926e+03
5.621497e+02,2.717489e+03
5.737205e+02,2.683080e+03
5.852913e+02,2.680710e+03
5.968621e+02,2.673816e+03
6.084329e+02,2.658130e+03
6.200037e+02,2.634902e+03
6.315745e+02,2.632933e+03
6.431453e+02,2.623423e+03
6.547161e+02,2.614430e+03
6.662869e+02,2.590604e+03
6.778577e+02,2.582088e+03
6.894285e+02,2.563362e+03
7.009993e+02,2.561717e+03
7.125701e+02,2.543968e+03
7.241409e+02,2.542118e+03
7.357117e+02,2.516083e+03
7.472825e+02,2.520600e+03
7.588533e+02,2.505579e+03
7.704241e+02,2.469187e+03
7.819949e+02,2.477428e+03
7.935657e+02,2.465729e+03
8.051365e+02,2.447126e+03
8.167073e+02,2.431909e+03
8.282781e+02,2.405196e+03
8.398489e+02,2.400907e+03
8.514197e+02,2.382160e+03
8.629905e+02,2.377069e+03
8.745613e+02,2.356512e+03
8.861321e+02,2.363324e+03
8.977029e+02,2.339501e+03
9.092737e+02,2.335534e+03
9.208445e+02,2.288233e+03
9.324153e+02,2.288039e+03
9.439861e+02,2.278833e+03
9.555569e+02,2.248529e+03
9.671277e+02,2.238481e+03
9.786985e+02,2.244736e+03
9.902693e+02,2.203765e+03
1.001840e+03,2.198711e+03
1.013411e+03,2.198416e+03
1.024982e+03,2.175829e+03
1.036552e+03,2.187863e+03
1.048123e+03,2.162727e+03
1.059694e+03,2.152971e+03
1.071265e+03,2.139874e+03
1.082836e+03,2.130080e+03
1.094406e+03,2.154711e+03
1.105977e+03,2.124802e+03
1.117548e+03,2.130174e+03
1.129119e+03,2.111038e+03
1.140690e+03,2.089058e+03
1.152261e+03,2.092670e+03
1.163831e+03,2.061538e+03
1.175402e+03,2.036375e+03
1.186973e+03,2.023287e+03
1.198544e+03,2.023256e+03
1.210115e+03,2.015638e+03
1.221685e+03,2.001472e+03
1.233256e+03,1.989203e+03
1.244827e+03,1.995222e+03
1.256398e+03,1.976768e+03
1.267969e+03,1.969122e+03
1.279539e+03,1.968614e+03
1.291110e+03,1.957642e+03
1.302681e+03,1.953440e+03
1.314252e+03,1.932025e+03
1.325823e+03,1.936803e+03
1.337393e+03,1.946621e+03
1.348964e+03,1.924008e+03
1.360535e+03,1.907136e+03
1.372106e+03,1.892558e+03
1.383677e+03,1.892601e+03
1.395247e+03,1.863896e+03
1.406818e+03,1.857800e+03
1.418389e+03,1.854255e+03
1.429960e+03,1.833804e+03
1.441531e+03,1.823531e+03
1.453101e+03,1.797004e+03
1.464672e+03,1.807675e+03
1.476243e+03,1.788216e+03
1.487814e+03,1.773457e+03
1.499385e+03,1.755629e+03
1.510955e+03,1.755358e+03
1.522526e+03,1.753293e+03
1.534097e+03,1.738407e+03
1.545668e+03,1.725092e+03
1.557239e+03,1.721536e+03
1.568809e+03,1.710902e+03
1.580380e+03,1.709262e+03
1.591951e+03,1.698505e+03
1.603522e+03,1.691238e+03
1.615093e+03,1.673809e+03
1.626663e+03,1.669276e+03
1.638234e+03,1.650292e+03
1.649805e+03,1.623202e+03
1.661376e+03,1.610576e+03
1.672947e+03,1.606862e+03
1.684517e+03,1.594518e+03
1.696088e+03,1.585860e+03
1.707659e+03,1.567579e+03
1.719230e+03,1.562283e+03
1.730801e+03,1.543428e+03
1.742371e+03,1.523227e+03
1.753942e+03,1.536825e+03
1.765513e+03,1.522850e+03
1.777084e+03,1.510544e+03
1.788655e+03,1.497526e+03
1.800225e+03,1.481848e+03
1.811796e+03,1.461344e+03
1.823367e+03,1.464473e+03
1.834938e+03,1.440419e+03
1.846509e+03,1.433347e+03
1.858079e+03,1.414646e+03
1.869650e+03,1.395378e+03
1.881221e+03,1.381432e+03
1.892792e+03,1.385605e+03
1.904363e+03,1.370190e+03
1.915933e+03,1.356735e+03
1.927504e+03,1.330588e+03
1.939075e+03,1.337490e+03
1.950646e+03,1.307839e+03
1.962217e+03,1.319114e+03
1.973787e+03,1.290190e+03
1.985358e+03,1.289699e+03
1.996929e+03,1.278120e+03
2.008500e+03,1.268717e+03
2.020071e+03,1.243472e+03
2.031641e+03,1.229843e+03
2.043212e+03,1.217356e+03
2.054783e+03,1.204201e+03
2.066354e+03,1.188488e+03
2.077925e+03,1.195746e+03
2.089496e+03,1.176101e+03
2.101066e+03,1.155514e+03
2.112637e+03,1.153605e+03
2.124208e+03,1.126600e+03
2.135779e+03,1.104426e+03
2.147350e+03,1.100859e+03
2.158920e+03,1.090892e+03
2.170491e+03,1.096197e+03
2.182062e+03,1.062763e+03
2.193633e+03,1.050445e+03
2.205204e+03,1.035917e+03
2.216774e+03,1.037684e+03
2.228345e+03,1.008022e+03
2.239916e+03,1.007158e+03
2.251487e+03,9.855658e+02
2.263058e+03,9.916976e+02
2.274628e+03,9.601846e+02
2.286199e+03,9.456749e+02
2.297770e+03,9.634446e+02
2.309341e+03,9.366973e+02
2.320912e+03,9.178445e+02
2.332482e+03,9.129465e+02
2.344053e+03,9.185752e+02
2.355624e+03,8.962708e+02
2.367195e+03,8.935722e+02
2.378766e+03,8.821125e+02
2.390336e+03,8.755130e+02
2.401907e+03,8.685027e+02
2.413478e+03,8.394424e+02
2.425049e+03,8.498034e+02
2.436620e+03,8.396471e+02
2.448190e+03,8.402877e+02
2.459761e+03,8.004129e+02
2.471332e+03,8.245855e+02
2.482903e+03,8.082610e+02
2.494474e+03,7.743102e+02
2.506044e+03,7.949680e+02
2.517615e+03,7.755250e+02
2.529186e+03,7.809714e+02
2.540757e+03,7.599988e+02
2.552328e+03,7.636968e+02
2.563898e+03,7.541243e+02
2.575469e+03,7.469644e+02
2.587040e+03,7.336773e+02
2.598611e+03,7.238170e+02
2.610182e+03,7.156351e+02
2.621752e+03,7.087756e+02
2.633323e+03,7.137584e+02
2.644894e+03,6.914069e+02
2.656465e+03,6.926641e+02
2.668036e+03,6.938021e+02
2.679606e+03,6.847119e+02
2.691177e+03,6.854921e+02
2.702748e+03,6.665812e+02
2.714319e+03,6.721012e+02
2.725890e+03,6.471939e+02
2.737460e+03,6.659785e+02
2.749031e+03,6.548486e+02
2.760602e+03,6.442053e+02
2.772173e+03,6.453257e+02
2.783744e+03,6.292736e+02
2.795314e+03,6.160140e+02
2.806885e+03,6.183275e+02
2.818456e+03,6.286572e+02
2.830027e+03,6.236066e+02
2.841598e+03,6.320977e+02
2.853168e+03,6.418177e+02
2.864739e+03,6.082883e+02
2.876310e+03,6.298951e+02
2.887881e+03,6.247692e+02
2.899452e+03,6.481310e+02
2.911022e+03,6.290383e+02
2.922593e+03,6.041177e+02
2.934164e+03,6.141054e+02
2.945735e+03,5.931432e+02
2.957306e+03,6.057825e+02
2.968876e+03,5.677901e+02
2.980447e+03,5.605314e+02
2.992018e+03,5.642443e+02
3.003589e+03,5.313220e+02
3.015160e+03,5.375388e+02
3.026730e+03,5.481552e+02
3.038301e+03,5.435740e+02
3.049872e+03,5.402120e+02
3.061443e+03,5.471461e+02
3.073014e+03,5.184573e+02
3.084584e+03,5.319639e+02
3.096155e+03,4.984391e+02
3.107726e+03,5.200409e+02
3.119297e+03,5.537169e+02
3.130868e+03,5.401492e+02
3.142438e+03,5.227841e+02
3.154009e+03,5.267424e+02
3.165580e+03,5.427595e+02
3.177151e+03,5.216747e+02
3.188722e+03,5.290596e+02
3.200292e+03,5.492805e+02
3.211863e+03,0.000000e+00
3.223434e+03,0.000000e+00
3.235005e+03,0.000000e+00
3.246576e+03,0.000000e+00
3.258146e+03,0.000000e+00
3.269717e+03,0.000000e+00
3.281288e+03,0.000000e+00
3.292859e+03,0.000000e+00
3.304430e+03,0.000000e+00
3.316000e+03,0.000000e+00
3.327571e+03,0.000000e+00
3.339142e+03,0.000000e+00
3.350713e+03,0.000000e+00
3.362284e+03,0.000000e+00
3.373854e+03,0.000000e+00
3.385425e+03,0.000000e+00
3.396996e+03,0.000000e+00
3.408567e+03,0.000000e+00
3.420138e+03,0.000000e+00
3.431708e+03,0.000000e+00
3.443279e+03,0.000000e+00
3.454850e+03,0.000000e+00
3.466421e+03,0.000000e+00
3.477992e+03,0.000000e+00
3.489563e+03,0.000000e+00
3.500169e+03,0.000000e+00