File: RAMAN_data/20012023_r3/blue fibre2.CSV
9.931763e+01,0.000000e+00
1.108884e+02,0.000000e+00
1.224592e+02,0.000000e+00
1.340300e+02,0.000000e+00
1.456008e+02,0.000000e+00
1.571716e+02,0.000000e+00
1.687424e+02,0.000000e+00
1.803132e+02,0.000000e+00
1.918840e+02,0.000000e+00
2.034548e+02,6.636783e+03
2.150256e+02,6.646509e+03
2.265964e+02,6.664792e+03
2.381673e+02,6.721285e+03
2.497381e+02,6.766510e+03
2.613088e+02,6.770964e+03
2.728796e+02,6.822300e+03
2.844504e+02,6.868885e+03
2.960212e+02,6.869115e+03
3.075920e+02,6.874252e+03
3.191628e+02,6.906159e+03
3.307336e+02,6.913385e+03
3.423044e+02,6.932523e+03
3.538752e+02,6.947790e+03
3.654461e+02,6.933095e+03
3.770169e+02,7.007378e+03
3.885877e+02,6.992651e+03
4.001585e+02,6.960994e+03
4.117293e+02,6.983259e+03
4.233001e+02,6.970345e+03
4.348709e+02,6.990729e+03
4.464417e+02,6.994061e+03
4.580125e+02,7.000376e+03
4.695833e+02,6.988361e+03
4.811541e+02,6.972098e+03
4.927249e+02,6.990203e+03
5.042957e+02,6.968201e+03
5.158665e+02,6.999270e+03
5.274373e+02,6.952519e+03
5.390081e+02,6.934316e+03
5.505789e+02,6.939255e+03
5.621497e+02,6.932617e+03
5.737205e+02,6.897345e+03
5.852913e+02,6.925897e+03
5.968621e+02,6.885868e+03
6.084329e+02,6.880002e+03
6.200037e+02,6.875607e+03
6.315745e+02,6.846339e+03
6.431453e+02,6.805808e+03
6.547161e+02,6.796303e+03
6.662869e+02,6.786703e+03
6.778577e+02,6.759831e+03
6.894285e+02,6.721669e+03
7.009993e+02,6.727443e+03
7.125701e+02,6.700886e+03
7.241409e+02,6.670958e+03
7.357117e+02,6.645208e+03
7.472825e+02,6.640371e+03
7.588533e+02,6.636100e+03
7.704241e+02,6.575316e+03
7.819949e+02,6.576209e+03
7.935657e+02,6.553076e+03
8.051365e+02,6.515421e+03
8.167073e+02,6.499083e+03
8.282781e+02,6.486669e+03
8.398489e+02,6.471719e+03
8.514197e+02,6.465047e+03
8.629905e+02,6.425002e+03
8.745613e+02,6.400979e+03
8.861321e+02,6.401120e+03
8.977029e+02,6.366855e+03
9.092737e+02,6.348548e+03
9.208445e+02,6.305427e+03
9.324153e+02,6.288386e+03
9.439861e+02,6.285672e+03
9.555569e+02,6.237858e+03
9.671277e+02,6.232204e+03
9.786985e+02,6.207162e+03
9.902693e+02,6.166194e+03
1.001840e+03,6.173075e+03
1.013411e+03,6.146474e+03
1.024982e+03,6.156492e+03
1.036552e+03,6.119273e+03
1.048123e+03,6.110865e+03
1.059694e+03,6.102934e+03
1.071265e+03,6.097025e+03
1.082836e+03,6.092912e+03
1.094406e+03,6.078964e+03
1.105977e+03,6.066361e+03
1.117548e+03,6.068362e+03
1.129119e+03,6.041389e+03
1.140690e+03,6.018341e+03
1.152261e+03,6.025067e+03
1.163831e+03,6.019769e+03
1.175402e+03,5.984375e+03
1.186973e+03,5.974161e+03
1.198544e+03,5.993390e+03
1.210115e+03,5.983000e+03
1.221685e+03,5.992884e+03
1.233256e+03,5.960833e+03
1.244827e+03,5.950657e+03
1.256398e+03,5.962545e+03
1.267969e+03,5.937213e+03
1.279539e+03,5.936095e+03
1.291110e+03,5.942745e+03
1.302681e+03,5.899153e+03
1.314252e+03,5.905856e+03
1.325823e+03,5.907467e+03
1.337393e+03,5.929255e+03
1.348964e+03,5.882439e+03
1.360535e+03,5.860042e+03
1.372106e+03,5.855047e+03
1.383677e+03,5.844636e+03
1.395247e+03,5.808278e+03
1.406818e+03,5.790240e+03
1.418389e+03,5.759251e+03
1.429960e+03,5.764293e+03
1.441531e+03,5.721526e+03
1.453101e+03,5.692935e+03
1.464672e+03,5.685301e+03
1.476243e+03,5.701805e+03
1.487814e+03,5.681367e+03
1.499385e+03,5.633678e+03
1.510955e+03,5.625425e+03
1.522526e+03,5.578413e+03
1.534097e+03,5.612334e+03
1.545668e+03,5.584036e+03
1.557239e+03,5.591101e+03
1.568809e+03,5.604367e+03
1.580380e+03,5.561695e+03
1.591951e+03,5.553728e+03
1.603522e+03,5.531655e+03
1.615093e+03,5.461188e+03
1.626663e+03,5.408544e+03
1.638234e+03,5.388447e+03
1.649805e+03,5.351609e+03
1.661376e+03,5.311729e+03
1.672947e+03,5.285733e+03
1.684517e+03,5.235803e+03
1.696088e+03,5.243720e+03
1.707659e+03,5.205843e+03
1.719230e+03,5.200229e+03
1.730801e+03,5.134933e+03
1.742371e+03,5.121628e+03
1.753942e+03,5.071060e+03
1.765513e+03,5.057625e+03
1.777084e+03,5.029901e+03
1.788655e+03,4.985782e+03
1.800225e+03,4.956888e+03
1.811796e+03,4.921231e+03
1.823367e+03,4.909899e+03
1.834938e+03,4.865147e+03
1.846509e+03,4.835891e+03
1.858079e+03,4.788775e+03
1.869650e+03,4.773862e+03
1.881221e+03,4.714533e+03
1.892792e+03,4.692614e+03
1.904363e+03,4.631234e+03
1.915933e+03,4.589569e+03
1.927504e+03,4.598830e+03
1.939075e+03,4.567515e+03
1.950646e+03,4.524744e+03
1.962217e+03,4.504198e+03
1.973787e+03,4.477456e+03
1.985358e+03,4.398289e+03
1.996929e+03,4.405208e+03
2.008500e+03,4.342473e+03
2.020071e+03,4.317475e+03
2.031641e+03,4.266733e+03
2.043212e+03,4.231240e+03
2.054783e+03,4.161794e+03
2.066354e+03,4.152615e+03
2.077925e+03,4.136763e+03
2.089496e+03,4.127379e+03
2.101066e+03,4.070654e+03
2.112637e+03,4.038777e+03
2.124208e+03,3.993222e+03
2.135779e+03,3.943857e+03
2.147350e+03,3.880168e+03
2.158920e+03,3.870931e+03
2.170491e+03,3.858504e+03
2.182062e+03,3.804379e+03
2.193633e+03,3.774909e+03
2.205204e+03,3.749011e+03
2.216774e+03,3.725036e+03
2.228345e+03,3.653401e+03
2.239916e+03,3.623015e+03
2.251487e+03,3.600130e+03
2.263058e+03,3.590831e+03
2.274628e+03,3.507586e+03
2.286199e+03,3.472680e+03
2.297770e+03,3.485177e+03
2.309341e+03,3.434264e+03
2.320912e+03,3.433894e+03
2.332482e+03,3.387831e+03
2.344053e+03,3.376444e+03
2.355624e+03,3.318762e+03
2.367195e+03,3.298220e+03
2.378766e+03,3.272250e+03
2.390336e+03,3.255805e+03
2.401907e+03,3.229213e+03
2.413478e+03,3.186750e+03
2.425049e+03,3.128658e+03
2.436620e+03,3.170760e+03
2.448190e+03,3.139731e+03
2.459761e+03,3.071168e+03
2.471332e+03,3.077132e+03
2.482903e+03,3.050052e+03
2.494474e+03,3.037377e+03
2.506044e+03,3.020174e+03
2.517615e+03,2.980958e+03
2.529186e+03,2.962805e+03
2.540757e+03,2.933789e+03
2.552328e+03,2.916834e+03
2.563898e+03,2.898263e+03
2.575469e+03,2.867438e+03
2.587040e+03,2.821407e+03
2.598611e+03,2.824881e+03
2.610182e+03,2.828869e+03
2.621752e+03,2.795223e+03
2.633323e+03,2.769908e+03
2.644894e+03,2.749909e+03
2.656465e+03,2.743222e+03
2.668036e+03,2.731917e+03
2.679606e+03,2.671848e+03
2.691177e+03,2.692272e+03
2.702748e+03,2.675165e+03
2.714319e+03,2.648497e+03
2.725890e+03,2.618460e+03
2.737460e+03,2.610964e+03
2.749031e+03,2.595911e+03
2.760602e+03,2.586475e+03
2.772173e+03,2.560367e+03
2.783744e+03,2.546114e+03
2.795314e+03,2.498402e+03
2.806885e+03,2.480946e+03
2.818456e+03,2.484870e+03
2.830027e+03,2.457708e+03
2.841598e+03,2.454984e+03
2.853168e+03,2.424444e+03
2.864739e+03,2.422093e+03
2.876310e+03,2.422640e+03
2.887881e+03,2.416866e+03
2.899452e+03,2.424899e+03
2.911022e+03,2.356212e+03
2.922593e+03,2.343782e+03
2.934164e+03,2.338046e+03
2.945735e+03,2.377363e+03
2.957306e+03,2.317139e+03
2.968876e+03,2.267965e+03
2.980447e+03,2.271100e+03
2.992018e+03,2.280964e+03
3.003589e+03,2.288534e+03
3.015160e+03,2.204703e+03
3.026730e+03,2.228580e+03
3.038301e+03,2.204175e+03
3.049872e+03,2.212449e+03
3.061443e+03,2.183923e+03
3.073014e+03,2.152047e+03
3.084584e+03,2.152567e+03
3.096155e+03,2.186232e+03
3.107726e+03,2.117798e+03
3.119297e+03,2.114016e+03
3.130868e+03,2.089882e+03
3.142438e+03,2.085795e+03
3.154009e+03,2.131011e+03
3.165580e+03,2.112868e+03
3.177151e+03,2.072685e+03
3.188722e+03,2.079103e+03
3.200292e+03,2.069632e+03
3.211863e+03,0.000000e+00
3.223434e+03,0.000000e+00
3.235005e+03,0.000000e+00
3.246576e+03,0.000000e+00
3.258146e+03,0.000000e+00
3.269717e+03,0.000000e+00
3.281288e+03,0.000000e+00
3.292859e+03,0.000000e+00
3.304430e+03,0.000000e+00
3.316000e+03,0.000000e+00
3.327571e+03,0.000000e+00
3.339142e+03,0.000000e+00
3.350713e+03,0.000000e+00
3.362284e+03,0.000000e+00
3.373854e+03,0.000000e+00
3.385425e+03,0.000000e+00
3.396996e+03,0.000000e+00
3.408567e+03,0.000000e+00
3.420138e+03,0.000000e+00
3.431708e+03,0.000000e+00
3.443279e+03,0.000000e+00
3.454850e+03,0.000000e+00
3.466421e+03,0.000000e+00
3.477992e+03,0.000000e+00
3.489563e+03,0.000000e+00
3.500169e+03,0.000000e+00