File: RAMAN_data/20012023_r3/blue fibre7.CSV
9.931763e+01,0.000000e+00
1.108884e+02,0.000000e+00
1.224592e+02,0.000000e+00
1.340300e+02,0.000000e+00
1.456008e+02,0.000000e+00
1.571716e+02,0.000000e+00
1.687424e+02,0.000000e+00
1.803132e+02,0.000000e+00
1.918840e+02,0.000000e+00
2.034548e+02,7.049765e+03
2.150256e+02,7.123572e+03
2.265964e+02,7.169906e+03
2.381673e+02,7.277088e+03
2.497381e+02,7.377987e+03
2.613088e+02,7.410327e+03
2.728796e+02,7.545990e+03
2.844504e+02,7.633710e+03
2.960212e+02,7.630261e+03
3.075920e+02,7.665523e+03
3.191628e+02,7.706247e+03
3.307336e+02,7.742850e+03
3.423044e+02,7.754111e+03
3.538752e+02,7.847878e+03
3.654461e+02,7.853692e+03
3.770169e+02,7.950380e+03
3.885877e+02,7.975857e+03
4.001585e+02,7.979341e+03
4.117293e+02,8.024257e+03
4.233001e+02,8.037203e+03
4.348709e+02,8.072500e+03
4.464417e+02,8.078523e+03
4.580125e+02,8.077298e+03
4.695833e+02,8.146087e+03
4.811541e+02,8.144195e+03
4.927249e+02,8.151534e+03
5.042957e+02,8.140659e+03
5.158665e+02,8.183782e+03
5.274373e+02,8.178971e+03
5.390081e+02,8.192401e+03
5.505789e+02,8.238319e+03
5.621497e+02,8.314131e+03
5.737205e+02,8.196772e+03
5.852913e+02,8.161258e+03
5.968621e+02,8.238296e+03
6.084329e+02,8.242987e+03
6.200037e+02,8.147917e+03
6.315745e+02,8.152408e+03
6.431453e+02,8.134023e+03
6.547161e+02,8.093388e+03
6.662869e+02,8.099011e+03
6.778577e+02,8.063522e+03
6.894285e+02,8.034885e+03
7.009993e+02,7.996870e+03
7.125701e+02,7.985063e+03
7.241409e+02,7.982699e+03
7.357117e+02,7.910596e+03
7.472825e+02,7.907344e+03
7.588533e+02,7.901028e+03
7.704241e+02,7.842314e+03
7.819949e+02,7.838767e+03
7.935657e+02,7.807581e+03
8.051365e+02,7.718693e+03
8.167073e+02,7.665242e+03
8.282781e+02,7.664586e+03
8.398489e+02,7.639597e+03
8.514197e+02,7.599106e+03
8.629905e+02,7.520205e+03
8.745613e+02,7.497093e+03
8.861321e+02,7.498641e+03
8.977029e+02,7.416157e+03
9.092737e+02,7.413567e+03
9.208445e+02,7.328597e+03
9.324153e+02,7.302533e+03
9.439861e+02,7.277848e+03
9.555569e+02,7.202186e+03
9.671277e+02,7.170680e+03
9.786985e+02,7.140534e+03
9.902693e+02,7.084002e+03
1.001840e+03,7.027401e+03
1.013411e+03,7.002122e+03
1.024982e+03,6.985870e+03
1.036552e+03,6.922399e+03
1.048123e+03,6.894975e+03
1.059694e+03,6.846471e+03
1.071265e+03,6.834537e+03
1.082836e+03,6.814995e+03
1.094406e+03,6.756334e+03
1.105977e+03,6.689112e+03
1.117548e+03,6.687149e+03
1.129119e+03,6.643925e+03
1.140690e+03,6.578122e+03
1.152261e+03,6.553497e+03
1.163831e+03,6.518854e+03
1.175402e+03,6.471419e+03
1.186973e+03,6.438404e+03
1.198544e+03,6.402323e+03
1.210115e+03,6.380860e+03
1.221685e+03,6.359577e+03
1.233256e+03,6.313046e+03
1.244827e+03,6.276943e+03
1.256398e+03,6.231258e+03
1.267969e+03,6.227421e+03
1.279539e+03,6.172456e+03
1.291110e+03,6.131830e+03
1.302681e+03,6.106659e+03
1.314252e+03,6.081802e+03
1.325823e+03,6.047568e+03
1.337393e+03,6.030438e+03
1.348964e+03,5.993748e+03
1.360535e+03,5.982400e+03
1.372106e+03,5.944345e+03
1.383677e+03,5.897109e+03
1.395247e+03,5.858361e+03
1.406818e+03,5.840460e+03
1.418389e+03,5.798660e+03
1.429960e+03,5.779625e+03
1.441531e+03,5.746831e+03
1.453101e+03,5.735220e+03
1.464672e+03,5.720048e+03
1.476243e+03,5.680581e+03
1.487814e+03,5.656133e+03
1.499385e+03,5.608763e+03
1.510955e+03,5.582058e+03
1.522526e+03,5.568881e+03
1.534097e+03,5.497945e+03
1.545668e+03,5.476886e+03
1.557239e+03,5.475057e+03
1.568809e+03,5.572813e+03
1.580380e+03,5.522156e+03
1.591951e+03,5.406343e+03
1.603522e+03,5.331944e+03
1.615093e+03,5.313390e+03
1.626663e+03,5.288276e+03
1.638234e+03,5.211203e+03
1.649805e+03,5.179586e+03
1.661376e+03,5.140329e+03
1.672947e+03,5.105970e+03
1.684517e+03,5.055890e+03
1.696088e+03,5.063476e+03
1.707659e+03,4.983829e+03
1.719230e+03,4.969070e+03
1.730801e+03,4.905402e+03
1.742371e+03,4.887951e+03
1.753942e+03,4.845827e+03
1.765513e+03,4.810767e+03
1.777084e+03,4.745892e+03
1.788655e+03,4.714321e+03
1.800225e+03,4.691269e+03
1.811796e+03,4.650517e+03
1.823367e+03,4.586666e+03
1.834938e+03,4.596051e+03
1.846509e+03,4.555662e+03
1.858079e+03,4.511834e+03
1.869650e+03,4.468850e+03
1.881221e+03,4.440164e+03
1.892792e+03,4.399614e+03
1.904363e+03,4.325388e+03
1.915933e+03,4.308050e+03
1.927504e+03,4.253630e+03
1.939075e+03,4.209525e+03
1.950646e+03,4.190824e+03
1.962217e+03,4.149679e+03
1.973787e+03,4.117232e+03
1.985358e+03,4.069649e+03
1.996929e+03,4.006537e+03
2.008500e+03,3.990748e+03
2.020071e+03,3.930657e+03
2.031641e+03,3.936106e+03
2.043212e+03,3.867042e+03
2.054783e+03,3.846808e+03
2.066354e+03,3.833005e+03
2.077925e+03,3.782529e+03
2.089496e+03,3.717251e+03
2.101066e+03,3.702532e+03
2.112637e+03,3.643034e+03
2.124208e+03,3.630828e+03
2.135779e+03,3.572508e+03
2.147350e+03,3.494220e+03
2.158920e+03,3.484980e+03
2.170491e+03,3.461476e+03
2.182062e+03,3.413587e+03
2.193633e+03,3.374862e+03
2.205204e+03,3.367032e+03
2.216774e+03,3.342216e+03
2.228345e+03,3.248961e+03
2.239916e+03,3.240963e+03
2.251487e+03,3.208862e+03
2.263058e+03,3.167371e+03
2.274628e+03,3.121180e+03
2.286199e+03,3.097593e+03
2.297770e+03,3.065654e+03
2.309341e+03,3.038785e+03
2.320912e+03,2.998849e+03
2.332482e+03,2.972846e+03
2.344053e+03,2.964830e+03
2.355624e+03,2.923819e+03
2.367195e+03,2.895983e+03
2.378766e+03,2.857957e+03
2.390336e+03,2.851353e+03
2.401907e+03,2.839941e+03
2.413478e+03,2.785322e+03
2.425049e+03,2.721935e+03
2.436620e+03,2.726172e+03
2.448190e+03,2.709203e+03
2.459761e+03,2.674760e+03
2.471332e+03,2.640450e+03
2.482903e+03,2.611188e+03
2.494474e+03,2.576076e+03
2.506044e+03,2.564406e+03
2.517615e+03,2.557976e+03
2.529186e+03,2.508048e+03
2.540757e+03,2.483174e+03
2.552328e+03,2.483712e+03
2.563898e+03,2.473224e+03
2.575469e+03,2.444014e+03
2.587040e+03,2.409623e+03
2.598611e+03,2.397398e+03
2.610182e+03,2.381096e+03
2.621752e+03,2.316163e+03
2.633323e+03,2.323907e+03
2.644894e+03,2.312893e+03
2.656465e+03,2.274263e+03
2.668036e+03,2.245068e+03
2.679606e+03,2.248417e+03
2.691177e+03,2.228557e+03
2.702748e+03,2.213467e+03
2.714319e+03,2.172290e+03
2.725890e+03,2.128397e+03
2.737460e+03,2.131622e+03
2.749031e+03,2.145302e+03
2.760602e+03,2.130665e+03
2.772173e+03,2.091690e+03
2.783744e+03,2.061198e+03
2.795314e+03,2.053808e+03
2.806885e+03,2.033311e+03
2.818456e+03,2.023018e+03
2.830027e+03,1.962728e+03
2.841598e+03,1.988920e+03
2.853168e+03,1.977429e+03
2.864739e+03,1.974320e+03
2.876310e+03,1.986568e+03
2.887881e+03,1.945384e+03
2.899452e+03,1.945497e+03
2.911022e+03,1.928410e+03
2.922593e+03,1.870041e+03
2.934164e+03,1.903914e+03
2.945735e+03,1.868303e+03
2.957306e+03,1.885844e+03
2.968876e+03,1.832873e+03
2.980447e+03,1.825358e+03
2.992018e+03,1.774550e+03
3.003589e+03,1.769563e+03
3.015160e+03,1.752163e+03
3.026730e+03,1.753263e+03
3.038301e+03,1.735657e+03
3.049872e+03,1.716225e+03
3.061443e+03,1.717997e+03
3.073014e+03,1.737869e+03
3.084584e+03,1.725388e+03
3.096155e+03,1.716444e+03
3.107726e+03,1.681087e+03
3.119297e+03,1.696366e+03
3.130868e+03,1.649514e+03
3.142438e+03,1.724696e+03
3.154009e+03,1.714258e+03
3.165580e+03,1.688725e+03
3.177151e+03,1.688797e+03
3.188722e+03,1.661709e+03
3.200292e+03,1.702271e+03
3.211863e+03,0.000000e+00
3.223434e+03,0.000000e+00
3.235005e+03,0.000000e+00
3.246576e+03,0.000000e+00
3.258146e+03,0.000000e+00
3.269717e+03,0.000000e+00
3.281288e+03,0.000000e+00
3.292859e+03,0.000000e+00
3.304430e+03,0.000000e+00
3.316000e+03,0.000000e+00
3.327571e+03,0.000000e+00
3.339142e+03,0.000000e+00
3.350713e+03,0.000000e+00
3.362284e+03,0.000000e+00
3.373854e+03,0.000000e+00
3.385425e+03,0.000000e+00
3.396996e+03,0.000000e+00
3.408567e+03,0.000000e+00
3.420138e+03,0.000000e+00
3.431708e+03,0.000000e+00
3.443279e+03,0.000000e+00
3.454850e+03,0.000000e+00
3.466421e+03,0.000000e+00
3.477992e+03,0.000000e+00
3.489563e+03,0.000000e+00
3.500169e+03,0.000000e+00