File: RAMAN_data/20012023_r3/blue fibre13.CSV
9.931763e+01,0.000000e+00
1.108884e+02,0.000000e+00
1.224592e+02,0.000000e+00
1.340300e+02,0.000000e+00
1.456008e+02,0.000000e+00
1.571716e+02,0.000000e+00
1.687424e+02,0.000000e+00
1.803132e+02,0.000000e+00
1.918840e+02,0.000000e+00
2.034548e+02,5.877933e+03
2.150256e+02,5.936053e+03
2.265964e+02,6.003690e+03
2.381673e+02,6.118850e+03
2.497381e+02,6.246465e+03
2.613088e+02,6.334424e+03
2.728796e+02,6.414107e+03
2.844504e+02,6.561875e+03
2.960212e+02,6.525897e+03
3.075920e+02,6.573974e+03
3.191628e+02,6.585269e+03
3.307336e+02,6.664598e+03
3.423044e+02,6.697915e+03
3.538752e+02,6.785021e+03
3.654461e+02,6.785286e+03
3.770169e+02,6.865179e+03
3.885877e+02,6.886379e+03
4.001585e+02,6.922367e+03
4.117293e+02,6.933143e+03
4.233001e+02,6.956099e+03
4.348709e+02,7.005378e+03
4.464417e+02,7.038003e+03
4.580125e+02,7.058192e+03
4.695833e+02,7.072562e+03
4.811541e+02,7.062846e+03
4.927249e+02,7.076372e+03
5.042957e+02,7.087381e+03
5.158665e+02,7.134935e+03
5.274373e+02,7.147006e+03
5.390081e+02,7.155322e+03
5.505789e+02,7.247020e+03
5.621497e+02,7.287927e+03
5.737205e+02,7.149085e+03
5.852913e+02,7.102882e+03
5.968621e+02,7.130583e+03
6.084329e+02,7.167860e+03
6.200037e+02,7.096985e+03
6.315745e+02,7.083018e+03
6.431453e+02,7.010097e+03
6.547161e+02,6.998079e+03
6.662869e+02,6.981370e+03
6.778577e+02,6.931516e+03
6.894285e+02,6.880188e+03
7.009993e+02,6.866763e+03
7.125701e+02,6.816273e+03
7.241409e+02,6.779808e+03
7.357117e+02,6.738189e+03
7.472825e+02,6.738742e+03
7.588533e+02,6.695255e+03
7.704241e+02,6.618415e+03
7.819949e+02,6.629317e+03
7.935657e+02,6.610306e+03
8.051365e+02,6.532731e+03
8.167073e+02,6.458452e+03
8.282781e+02,6.404893e+03
8.398489e+02,6.406673e+03
8.514197e+02,6.331958e+03
8.629905e+02,6.282415e+03
8.745613e+02,6.235972e+03
8.861321e+02,6.199320e+03
8.977029e+02,6.162418e+03
9.092737e+02,6.074691e+03
9.208445e+02,6.010651e+03
9.324153e+02,5.943990e+03
9.439861e+02,5.917478e+03
9.555569e+02,5.853274e+03
9.671277e+02,5.806383e+03
9.786985e+02,5.762253e+03
9.902693e+02,5.692756e+03
1.001840e+03,5.627052e+03
1.013411e+03,5.619919e+03
1.024982e+03,5.537128e+03
1.036552e+03,5.499467e+03
1.048123e+03,5.444714e+03
1.059694e+03,5.428834e+03
1.071265e+03,5.400785e+03
1.082836e+03,5.369704e+03
1.094406e+03,5.318678e+03
1.105977e+03,5.221383e+03
1.117548e+03,5.193208e+03
1.129119e+03,5.103158e+03
1.140690e+03,5.054188e+03
1.152261e+03,5.013552e+03
1.163831e+03,4.966096e+03
1.175402e+03,4.902403e+03
1.186973e+03,4.884057e+03
1.198544e+03,4.858897e+03
1.210115e+03,4.786569e+03
1.221685e+03,4.738880e+03
1.233256e+03,4.693369e+03
1.244827e+03,4.650708e+03
1.256398e+03,4.599635e+03
1.267969e+03,4.541371e+03
1.279539e+03,4.503220e+03
1.291110e+03,4.482390e+03
1.302681e+03,4.432034e+03
1.314252e+03,4.418923e+03
1.325823e+03,4.361723e+03
1.337393e+03,4.334529e+03
1.348964e+03,4.295154e+03
1.360535e+03,4.269583e+03
1.372106e+03,4.200150e+03
1.383677e+03,4.199108e+03
1.395247e+03,4.146584e+03
1.406818e+03,4.085513e+03
1.418389e+03,4.074443e+03
1.429960e+03,4.025172e+03
1.441531e+03,3.994517e+03
1.453101e+03,3.993421e+03
1.464672e+03,3.955482e+03
1.476243e+03,3.908793e+03
1.487814e+03,3.901673e+03
1.499385e+03,3.847032e+03
1.510955e+03,3.857578e+03
1.522526e+03,3.798617e+03
1.534097e+03,3.749584e+03
1.545668e+03,3.734026e+03
1.557239e+03,3.736523e+03
1.568809e+03,3.787437e+03
1.580380e+03,3.747979e+03
1.591951e+03,3.661823e+03
1.603522e+03,3.612699e+03
1.615093e+03,3.566111e+03
1.626663e+03,3.549251e+03
1.638234e+03,3.522879e+03
1.649805e+03,3.475431e+03
1.661376e+03,3.456121e+03
1.672947e+03,3.440450e+03
1.684517e+03,3.398089e+03
1.696088e+03,3.349708e+03
1.707659e+03,3.298423e+03
1.719230e+03,3.286588e+03
1.730801e+03,3.252290e+03
1.742371e+03,3.234605e+03
1.753942e+03,3.208854e+03
1.765513e+03,3.170073e+03
1.777084e+03,3.145304e+03
1.788655e+03,3.106375e+03
1.800225e+03,3.095286e+03
1.811796e+03,3.056333e+03
1.823367e+03,3.033375e+03
1.834938e+03,2.985811e+03
1.846509e+03,2.980435e+03
1.858079e+03,2.943910e+03
1.869650e+03,2.916578e+03
1.881221e+03,2.884458e+03
1.892792e+03,2.848595e+03
1.904363e+03,2.849081e+03
1.915933e+03,2.813340e+03
1.927504e+03,2.787183e+03
1.939075e+03,2.745226e+03
1.950646e+03,2.710131e+03
1.962217e+03,2.696531e+03
1.973787e+03,2.662352e+03
1.985358e+03,2.643960e+03
1.996929e+03,2.610201e+03
2.008500e+03,2.577511e+03
2.020071e+03,2.541097e+03
2.031641e+03,2.505573e+03
2.043212e+03,2.483811e+03
2.054783e+03,2.456390e+03
2.066354e+03,2.450488e+03
2.077925e+03,2.388038e+03
2.089496e+03,2.382352e+03
2.101066e+03,2.327097e+03
2.112637e+03,2.320485e+03
2.124208e+03,2.289282e+03
2.135779e+03,2.258585e+03
2.147350e+03,2.214182e+03
2.158920e+03,2.209434e+03
2.170491e+03,2.173913e+03
2.182062e+03,2.156332e+03
2.193633e+03,2.111301e+03
2.205204e+03,2.083422e+03
2.216774e+03,2.072312e+03
2.228345e+03,2.032719e+03
2.239916e+03,2.021470e+03
2.251487e+03,1.986792e+03
2.263058e+03,1.962582e+03
2.274628e+03,1.916892e+03
2.286199e+03,1.894214e+03
2.297770e+03,1.899951e+03
2.309341e+03,1.861719e+03
2.320912e+03,1.840331e+03
2.332482e+03,1.804573e+03
2.344053e+03,1.797956e+03
2.355624e+03,1.764844e+03
2.367195e+03,1.743410e+03
2.378766e+03,1.713360e+03
2.390336e+03,1.707531e+03
2.401907e+03,1.657593e+03
2.413478e+03,1.647176e+03
2.425049e+03,1.637875e+03
2.436620e+03,1.617284e+03
2.448190e+03,1.584966e+03
2.459761e+03,1.576343e+03
2.471332e+03,1.555810e+03
2.482903e+03,1.526570e+03
2.494474e+03,1.511694e+03
2.506044e+03,1.501568e+03
2.517615e+03,1.479974e+03
2.529186e+03,1.474238e+03
2.540757e+03,1.438193e+03
2.552328e+03,1.423652e+03
2.563898e+03,1.418443e+03
2.575469e+03,1.409107e+03
2.587040e+03,1.372781e+03
2.598611e+03,1.370161e+03
2.610182e+03,1.352497e+03
2.621752e+03,1.340724e+03
2.633323e+03,1.317857e+03
2.644894e+03,1.298440e+03
2.656465e+03,1.290007e+03
2.668036e+03,1.286989e+03
2.679606e+03,1.249542e+03
2.691177e+03,1.240808e+03
2.702748e+03,1.243301e+03
2.714319e+03,1.222495e+03
2.725890e+03,1.195162e+03
2.737460e+03,1.204431e+03
2.749031e+03,1.222454e+03
2.760602e+03,1.187017e+03
2.772173e+03,1.151343e+03
2.783744e+03,1.126794e+03
2.795314e+03,1.145623e+03
2.806885e+03,1.138158e+03
2.818456e+03,1.113192e+03
2.830027e+03,1.114090e+03
2.841598e+03,1.101082e+03
2.853168e+03,1.096124e+03
2.864739e+03,1.087829e+03
2.876310e+03,1.077599e+03
2.887881e+03,1.084061e+03
2.899452e+03,1.089261e+03
2.911022e+03,1.081786e+03
2.922593e+03,1.023931e+03
2.934164e+03,1.049841e+03
2.945735e+03,1.037407e+03
2.957306e+03,1.018235e+03
2.968876e+03,1.020159e+03
2.980447e+03,1.015937e+03
2.992018e+03,9.633947e+02
3.003589e+03,9.704694e+02
3.015160e+03,9.618103e+02
3.026730e+03,9.737098e+02
3.038301e+03,9.646293e+02
3.049872e+03,9.426283e+02
3.061443e+03,9.583452e+02
3.073014e+03,9.772156e+02
3.084584e+03,9.157462e+02
3.096155e+03,9.808359e+02
3.107726e+03,9.361337e+02
3.119297e+03,9.511506e+02
3.130868e+03,9.526588e+02
3.142438e+03,9.239124e+02
3.154009e+03,9.522712e+02
3.165580e+03,9.358782e+02
3.177151e+03,9.148553e+02
3.188722e+03,9.474706e+02
3.200292e+03,9.720027e+02
3.211863e+03,0.000000e+00
3.223434e+03,0.000000e+00
3.235005e+03,0.000000e+00
3.246576e+03,0.000000e+00
3.258146e+03,0.000000e+00
3.269717e+03,0.000000e+00
3.281288e+03,0.000000e+00
3.292859e+03,0.000000e+00
3.304430e+03,0.000000e+00
3.316000e+03,0.000000e+00
3.327571e+03,0.000000e+00
3.339142e+03,0.000000e+00
3.350713e+03,0.000000e+00
3.362284e+03,0.000000e+00
3.373854e+03,0.000000e+00
3.385425e+03,0.000000e+00
3.396996e+03,0.000000e+00
3.408567e+03,0.000000e+00
3.420138e+03,0.000000e+00
3.431708e+03,0.000000e+00
3.443279e+03,0.000000e+00
3.454850e+03,0.000000e+00
3.466421e+03,0.000000e+00
3.477992e+03,0.000000e+00
3.489563e+03,0.000000e+00
3.500169e+03,0.000000e+00