File: RAMAN_data/20012023_r3/blue fibre12.CSV
9.931763e+01,0.000000e+00
1.108884e+02,0.000000e+00
1.224592e+02,0.000000e+00
1.340300e+02,0.000000e+00
1.456008e+02,0.000000e+00
1.571716e+02,0.000000e+00
1.687424e+02,0.000000e+00
1.803132e+02,0.000000e+00
1.918840e+02,0.000000e+00
2.034548e+02,2.881408e+03
2.150256e+02,2.902283e+03
2.265964e+02,2.911849e+03
2.381673e+02,2.932598e+03
2.497381e+02,2.938630e+03
2.613088e+02,2.956266e+03
2.728796e+02,2.978850e+03
2.844504e+02,2.986587e+03
2.960212e+02,3.007647e+03
3.075920e+02,3.018488e+03
3.191628e+02,3.026695e+03
3.307336e+02,3.048869e+03
3.423044e+02,3.059816e+03
3.538752e+02,3.067138e+03
3.654461e+02,3.067847e+03
3.770169e+02,3.111323e+03
3.885877e+02,3.094494e+03
4.001585e+02,3.090941e+03
4.117293e+02,3.077874e+03
4.233001e+02,3.088863e+03
4.348709e+02,3.103205e+03
4.464417e+02,3.093277e+03
4.580125e+02,3.111436e+03
4.695833e+02,3.105785e+03
4.811541e+02,3.090095e+03
4.927249e+02,3.091027e+03
5.042957e+02,3.096816e+03
5.158665e+02,3.120614e+03
5.274373e+02,3.100703e+03
5.390081e+02,3.060608e+03
5.505789e+02,3.080270e+03
5.621497e+02,3.091516e+03
5.737205e+02,3.060458e+03
5.852913e+02,3.066215e+03
5.968621e+02,3.059672e+03
6.084329e+02,3.045851e+03
6.200037e+02,3.021387e+03
6.315745e+02,3.022437e+03
6.431453e+02,3.005739e+03
6.547161e+02,3.013073e+03
6.662869e+02,3.010434e+03
6.778577e+02,2.981177e+03
6.894285e+02,2.977787e+03
7.009993e+02,2.969063e+03
7.125701e+02,2.934351e+03
7.241409e+02,2.908607e+03
7.357117e+02,2.911695e+03
7.472825e+02,2.898143e+03
7.588533e+02,2.884490e+03
7.704241e+02,2.856176e+03
7.819949e+02,2.862500e+03
7.935657e+02,2.826220e+03
8.051365e+02,2.815232e+03
8.167073e+02,2.789806e+03
8.282781e+02,2.790084e+03
8.398489e+02,2.758128e+03
8.514197e+02,2.746582e+03
8.629905e+02,2.728936e+03
8.745613e+02,2.701016e+03
8.861321e+02,2.697984e+03
8.977029e+02,2.684035e+03
9.092737e+02,2.651681e+03
9.208445e+02,2.636900e+03
9.324153e+02,2.617927e+03
9.439861e+02,2.585100e+03
9.555569e+02,2.565052e+03
9.671277e+02,2.566142e+03
9.786985e+02,2.534959e+03
9.902693e+02,2.505918e+03
1.001840e+03,2.495134e+03
1.013411e+03,2.470239e+03
1.024982e+03,2.453738e+03
1.036552e+03,2.468391e+03
1.048123e+03,2.439037e+03
1.059694e+03,2.420304e+03
1.071265e+03,2.410011e+03
1.082836e+03,2.405977e+03
1.094406e+03,2.409786e+03
1.105977e+03,2.369586e+03
1.117548e+03,2.372646e+03
1.129119e+03,2.344896e+03
1.140690e+03,2.318650e+03
1.152261e+03,2.315952e+03
1.163831e+03,2.292096e+03
1.175402e+03,2.265451e+03
1.186973e+03,2.240457e+03
1.198544e+03,2.236477e+03
1.210115e+03,2.226948e+03
1.221685e+03,2.219853e+03
1.233256e+03,2.205500e+03
1.244827e+03,2.211047e+03
1.256398e+03,2.174096e+03
1.267969e+03,2.166052e+03
1.279539e+03,2.139187e+03
1.291110e+03,2.144047e+03
1.302681e+03,2.123147e+03
1.314252e+03,2.107564e+03
1.325823e+03,2.096418e+03
1.337393e+03,2.096821e+03
1.348964e+03,2.089462e+03
1.360535e+03,2.075001e+03
1.372106e+03,2.055394e+03
1.383677e+03,2.041240e+03
1.395247e+03,2.016377e+03
1.406818e+03,2.024063e+03
1.418389e+03,2.020368e+03
1.429960e+03,1.994046e+03
1.441531e+03,1.986740e+03
1.453101e+03,1.968336e+03
1.464672e+03,1.940828e+03
1.476243e+03,1.972014e+03
1.487814e+03,1.961266e+03
1.499385e+03,1.918752e+03
1.510955e+03,1.925618e+03
1.522526e+03,1.959580e+03
1.534097e+03,1.912248e+03
1.545668e+03,1.889688e+03
1.557239e+03,1.877182e+03
1.568809e+03,1.880920e+03
1.580380e+03,1.858548e+03
1.591951e+03,1.856795e+03
1.603522e+03,1.875712e+03
1.615093e+03,1.858571e+03
1.626663e+03,1.815502e+03
1.638234e+03,1.797273e+03
1.649805e+03,1.778827e+03
1.661376e+03,1.763541e+03
1.672947e+03,1.750130e+03
1.684517e+03,1.743656e+03
1.696088e+03,1.728667e+03
1.707659e+03,1.720002e+03
1.719230e+03,1.702673e+03
1.730801e+03,1.685325e+03
1.742371e+03,1.678760e+03
1.753942e+03,1.667238e+03
1.765513e+03,1.667256e+03
1.777084e+03,1.642893e+03
1.788655e+03,1.641422e+03
1.800225e+03,1.631420e+03
1.811796e+03,1.596024e+03
1.823367e+03,1.599837e+03
1.834938e+03,1.585720e+03
1.846509e+03,1.578413e+03
1.858079e+03,1.573562e+03
1.869650e+03,1.554806e+03
1.881221e+03,1.543883e+03
1.892792e+03,1.530973e+03
1.904363e+03,1.510948e+03
1.915933e+03,1.510384e+03
1.927504e+03,1.494577e+03
1.939075e+03,1.489344e+03
1.950646e+03,1.464788e+03
1.962217e+03,1.448607e+03
1.973787e+03,1.454372e+03
1.985358e+03,1.421747e+03
1.996929e+03,1.415871e+03
2.008500e+03,1.395329e+03
2.020071e+03,1.389987e+03
2.031641e+03,1.375425e+03
2.043212e+03,1.355111e+03
2.054783e+03,1.362652e+03
2.066354e+03,1.342190e+03
2.077925e+03,1.317942e+03
2.089496e+03,1.303505e+03
2.101066e+03,1.311695e+03
2.112637e+03,1.275345e+03
2.124208e+03,1.286622e+03
2.135779e+03,1.248462e+03
2.147350e+03,1.226939e+03
2.158920e+03,1.236581e+03
2.170491e+03,1.224184e+03
2.182062e+03,1.202933e+03
2.193633e+03,1.199968e+03
2.205204e+03,1.187372e+03
2.216774e+03,1.173616e+03
2.228345e+03,1.145690e+03
2.239916e+03,1.181892e+03
2.251487e+03,1.151931e+03
2.263058e+03,1.139901e+03
2.274628e+03,1.114440e+03
2.286199e+03,1.099983e+03
2.297770e+03,1.093726e+03
2.309341e+03,1.077575e+03
2.320912e+03,1.073914e+03
2.332482e+03,1.061806e+03
2.344053e+03,1.048328e+03
2.355624e+03,1.029691e+03
2.367195e+03,1.007161e+03
2.378766e+03,1.014328e+03
2.390336e+03,1.004837e+03
2.401907e+03,1.003874e+03
2.413478e+03,9.782735e+02
2.425049e+03,9.810181e+02
2.436620e+03,9.741026e+02
2.448190e+03,9.487128e+02
2.459761e+03,9.374936e+02
2.471332e+03,9.354018e+02
2.482903e+03,9.225524e+02
2.494474e+03,9.129233e+02
2.506044e+03,8.985123e+02
2.517615e+03,9.077535e+02
2.529186e+03,8.909358e+02
2.540757e+03,9.002669e+02
2.552328e+03,8.810569e+02
2.563898e+03,8.961954e+02
2.575469e+03,8.703414e+02
2.587040e+03,8.534520e+02
2.598611e+03,8.415602e+02
2.610182e+03,8.392213e+02
2.621752e+03,8.412784e+02
2.633323e+03,8.227784e+02
2.644894e+03,8.243754e+02
2.656465e+03,8.263597e+02
2.668036e+03,8.172293e+02
2.679606e+03,7.956516e+02
2.691177e+03,7.914578e+02
2.702748e+03,7.859173e+02
2.714319e+03,7.724856e+02
2.725890e+03,7.792701e+02
2.737460e+03,7.553456e+02
2.749031e+03,7.669848e+02
2.760602e+03,7.604700e+02
2.772173e+03,7.531119e+02
2.783744e+03,7.437889e+02
2.795314e+03,7.411213e+02
2.806885e+03,7.239593e+02
2.818456e+03,7.155228e+02
2.830027e+03,7.127097e+02
2.841598e+03,7.025793e+02
2.853168e+03,7.319247e+02
2.864739e+03,7.028038e+02
2.876310e+03,7.360544e+02
2.887881e+03,7.401533e+02
2.899452e+03,7.423499e+02
2.911022e+03,7.269781e+02
2.922593e+03,7.062051e+02
2.934164e+03,6.884142e+02
2.945735e+03,7.003889e+02
2.957306e+03,7.198720e+02
2.968876e+03,6.926013e+02
2.980447e+03,6.653369e+02
2.992018e+03,6.373575e+02
3.003589e+03,6.354907e+02
3.015160e+03,6.299692e+02
3.026730e+03,6.213613e+02
3.038301e+03,6.429006e+02
3.049872e+03,6.313816e+02
3.061443e+03,6.396843e+02
3.073014e+03,6.262858e+02
3.084584e+03,6.462409e+02
3.096155e+03,6.059336e+02
3.107726e+03,6.212482e+02
3.119297e+03,6.268805e+02
3.130868e+03,6.616718e+02
3.142438e+03,6.255978e+02
3.154009e+03,6.362822e+02
3.165580e+03,6.391464e+02
3.177151e+03,5.905208e+02
3.188722e+03,6.416019e+02
3.200292e+03,6.374064e+02
3.211863e+03,0.000000e+00
3.223434e+03,0.000000e+00
3.235005e+03,0.000000e+00
3.246576e+03,0.000000e+00
3.258146e+03,0.000000e+00
3.269717e+03,0.000000e+00
3.281288e+03,0.000000e+00
3.292859e+03,0.000000e+00
3.304430e+03,0.000000e+00
3.316000e+03,0.000000e+00
3.327571e+03,0.000000e+00
3.339142e+03,0.000000e+00
3.350713e+03,0.000000e+00
3.362284e+03,0.000000e+00
3.373854e+03,0.000000e+00
3.385425e+03,0.000000e+00
3.396996e+03,0.000000e+00
3.408567e+03,0.000000e+00
3.420138e+03,0.000000e+00
3.431708e+03,0.000000e+00
3.443279e+03,0.000000e+00
3.454850e+03,0.000000e+00
3.466421e+03,0.000000e+00
3.477992e+03,0.000000e+00
3.489563e+03,0.000000e+00
3.500169e+03,0.000000e+00