File: RAMAN_data/20012023_r3/blue fibre4.CSV
9.931763e+01,0.000000e+00
1.108884e+02,0.000000e+00
1.224592e+02,0.000000e+00
1.340300e+02,0.000000e+00
1.456008e+02,0.000000e+00
1.571716e+02,0.000000e+00
1.687424e+02,0.000000e+00
1.803132e+02,0.000000e+00
1.918840e+02,0.000000e+00
2.034548e+02,1.051899e+04
2.150256e+02,1.057905e+04
2.265964e+02,1.068651e+04
2.381673e+02,1.083713e+04
2.497381e+02,1.092278e+04
2.613088e+02,1.101875e+04
2.728796e+02,1.114345e+04
2.844504e+02,1.128443e+04
2.960212e+02,1.138987e+04
3.075920e+02,1.148845e+04
3.191628e+02,1.160775e+04
3.307336e+02,1.175910e+04
3.423044e+02,1.188976e+04
3.538752e+02,1.203829e+04
3.654461e+02,1.215099e+04
3.770169e+02,1.231110e+04
3.885877e+02,1.246675e+04
4.001585e+02,1.259455e+04
4.117293e+02,1.274362e+04
4.233001e+02,1.288550e+04
4.348709e+02,1.304495e+04
4.464417e+02,1.321596e+04
4.580125e+02,1.333318e+04
4.695833e+02,1.347341e+04
4.811541e+02,1.360224e+04
4.927249e+02,1.374474e+04
5.042957e+02,1.387491e+04
5.158665e+02,1.399692e+04
5.274373e+02,1.410203e+04
5.390081e+02,1.416972e+04
5.505789e+02,1.428556e+04
5.621497e+02,1.439837e+04
5.737205e+02,1.446632e+04
5.852913e+02,1.457575e+04
5.968621e+02,1.471280e+04
6.084329e+02,1.480358e+04
6.200037e+02,1.484330e+04
6.315745e+02,1.490827e+04
6.431453e+02,1.500741e+04
6.547161e+02,1.510578e+04
6.662869e+02,1.514584e+04
6.778577e+02,1.514799e+04
6.894285e+02,1.519395e+04
7.009993e+02,1.527256e+04
7.125701e+02,1.527661e+04
7.241409e+02,1.527022e+04
7.357117e+02,1.526974e+04
7.472825e+02,1.528886e+04
7.588533e+02,1.525555e+04
7.704241e+02,1.515503e+04
7.819949e+02,1.510160e+04
7.935657e+02,1.505522e+04
8.051365e+02,1.487697e+04
8.167073e+02,1.480423e+04
8.282781e+02,1.472562e+04
8.398489e+02,1.461663e+04
8.514197e+02,1.453456e+04
8.629905e+02,1.436046e+04
8.745613e+02,1.427009e+04
8.861321e+02,1.420242e+04
8.977029e+02,1.405525e+04
9.092737e+02,1.393547e+04
9.208445e+02,1.378853e+04
9.324153e+02,1.368697e+04
9.439861e+02,1.358068e+04
9.555569e+02,1.345634e+04
9.671277e+02,1.334148e+04
9.786985e+02,1.321971e+04
9.902693e+02,1.310172e+04
1.001840e+03,1.299357e+04
1.013411e+03,1.293278e+04
1.024982e+03,1.280763e+04
1.036552e+03,1.275861e+04
1.048123e+03,1.268110e+04
1.059694e+03,1.258594e+04
1.071265e+03,1.251742e+04
1.082836e+03,1.242706e+04
1.094406e+03,1.231514e+04
1.105977e+03,1.222336e+04
1.117548e+03,1.218770e+04
1.129119e+03,1.202970e+04
1.140690e+03,1.192958e+04
1.152261e+03,1.187154e+04
1.163831e+03,1.176183e+04
1.175402e+03,1.165505e+04
1.186973e+03,1.155355e+04
1.198544e+03,1.154842e+04
1.210115e+03,1.153367e+04
1.221685e+03,1.144798e+04
1.233256e+03,1.137522e+04
1.244827e+03,1.132001e+04
1.256398e+03,1.120200e+04
1.267969e+03,1.113300e+04
1.279539e+03,1.107262e+04
1.291110e+03,1.103442e+04
1.302681e+03,1.096350e+04
1.314252e+03,1.085067e+04
1.325823e+03,1.081797e+04
1.337393e+03,1.083273e+04
1.348964e+03,1.075325e+04
1.360535e+03,1.064909e+04
1.372106e+03,1.065497e+04
1.383677e+03,1.060041e+04
1.395247e+03,1.053295e+04
1.406818e+03,1.048861e+04
1.418389e+03,1.044984e+04
1.429960e+03,1.039198e+04
1.441531e+03,1.031023e+04
1.453101e+03,1.025867e+04
1.464672e+03,1.017866e+04
1.476243e+03,1.014720e+04
1.487814e+03,1.007623e+04
1.499385e+03,1.003066e+04
1.510955e+03,9.988113e+03
1.522526e+03,9.959889e+03
1.534097e+03,9.902968e+03
1.545668e+03,9.810709e+03
1.557239e+03,9.795393e+03
1.568809e+03,9.761271e+03
1.580380e+03,9.718152e+03
1.591951e+03,9.666467e+03
1.603522e+03,9.633919e+03
1.615093e+03,9.593489e+03
1.626663e+03,9.522631e+03
1.638234e+03,9.490660e+03
1.649805e+03,9.412405e+03
1.661376e+03,9.384509e+03
1.672947e+03,9.277438e+03
1.684517e+03,9.221196e+03
1.696088e+03,9.199049e+03
1.707659e+03,9.127514e+03
1.719230e+03,9.073191e+03
1.730801e+03,8.980358e+03
1.742371e+03,8.981651e+03
1.753942e+03,8.879938e+03
1.765513e+03,8.831567e+03
1.777084e+03,8.775341e+03
1.788655e+03,8.694145e+03
1.800225e+03,8.692941e+03
1.811796e+03,8.645155e+03
1.823367e+03,8.570013e+03
1.834938e+03,8.496614e+03
1.846509e+03,8.477313e+03
1.858079e+03,8.380827e+03
1.869650e+03,8.267627e+03
1.881221e+03,8.211573e+03
1.892792e+03,8.215082e+03
1.904363e+03,8.135591e+03
1.915933e+03,7.959948e+03
1.927504e+03,7.985744e+03
1.939075e+03,7.926912e+03
1.950646e+03,7.845073e+03
1.962217e+03,7.825650e+03
1.973787e+03,7.740213e+03
1.985358e+03,7.657930e+03
1.996929e+03,7.589724e+03
2.008500e+03,7.535964e+03
2.020071e+03,7.461744e+03
2.031641e+03,7.394093e+03
2.043212e+03,7.298450e+03
2.054783e+03,7.218479e+03
2.066354e+03,7.174982e+03
2.077925e+03,7.076435e+03
2.089496e+03,7.003330e+03
2.101066e+03,6.964775e+03
2.112637e+03,6.907297e+03
2.124208e+03,6.815612e+03
2.135779e+03,6.760033e+03
2.147350e+03,6.645847e+03
2.158920e+03,6.581187e+03
2.170491e+03,6.581460e+03
2.182062e+03,6.450305e+03
2.193633e+03,6.389656e+03
2.205204e+03,6.317476e+03
2.216774e+03,6.276208e+03
2.228345e+03,6.117874e+03
2.239916e+03,6.081309e+03
2.251487e+03,6.008697e+03
2.263058e+03,5.970302e+03
2.274628e+03,5.840815e+03
2.286199e+03,5.803693e+03
2.297770e+03,5.758706e+03
2.309341e+03,5.670218e+03
2.320912e+03,5.582474e+03
2.332482e+03,5.546232e+03
2.344053e+03,5.505891e+03
2.355624e+03,5.403269e+03
2.367195e+03,5.357896e+03
2.378766e+03,5.285419e+03
2.390336e+03,5.229230e+03
2.401907e+03,5.169497e+03
2.413478e+03,5.082372e+03
2.425049e+03,5.067118e+03
2.436620e+03,5.011357e+03
2.448190e+03,4.961888e+03
2.459761e+03,4.893482e+03
2.471332e+03,4.814431e+03
2.482903e+03,4.755455e+03
2.494474e+03,4.719494e+03
2.506044e+03,4.674161e+03
2.517615e+03,4.647461e+03
2.529186e+03,4.592497e+03
2.540757e+03,4.544669e+03
2.552328e+03,4.475314e+03
2.563898e+03,4.417753e+03
2.575469e+03,4.374064e+03
2.587040e+03,4.335458e+03
2.598611e+03,4.260074e+03
2.610182e+03,4.209605e+03
2.621752e+03,4.176041e+03
2.633323e+03,4.141733e+03
2.644894e+03,4.081999e+03
2.656465e+03,4.072891e+03
2.668036e+03,4.041271e+03
2.679606e+03,3.961787e+03
2.691177e+03,3.942259e+03
2.702748e+03,3.931082e+03
2.714319e+03,3.859677e+03
2.725890e+03,3.840781e+03
2.737460e+03,3.795878e+03
2.749031e+03,3.755119e+03
2.760602e+03,3.752505e+03
2.772173e+03,3.704517e+03
2.783744e+03,3.660530e+03
2.795314e+03,3.614015e+03
2.806885e+03,3.612181e+03
2.818456e+03,3.558039e+03
2.830027e+03,3.554706e+03
2.841598e+03,3.535601e+03
2.853168e+03,3.479922e+03
2.864739e+03,3.440362e+03
2.876310e+03,3.437073e+03
2.887881e+03,3.472461e+03
2.899452e+03,3.400584e+03
2.911022e+03,3.386137e+03
2.922593e+03,3.294918e+03
2.934164e+03,3.334502e+03
2.945735e+03,3.315142e+03
2.957306e+03,3.254201e+03
2.968876e+03,3.224329e+03
2.980447e+03,3.189373e+03
2.992018e+03,3.181316e+03
3.003589e+03,3.106104e+03
3.015160e+03,3.112592e+03
3.026730e+03,3.091322e+03
3.038301e+03,3.059010e+03
3.049872e+03,3.059301e+03
3.061443e+03,3.020043e+03
3.073014e+03,3.032491e+03
3.084584e+03,3.027472e+03
3.096155e+03,2.959299e+03
3.107726e+03,2.949516e+03
3.119297e+03,2.991433e+03
3.130868e+03,3.056196e+03
3.142438e+03,2.878427e+03
3.154009e+03,2.953018e+03
3.165580e+03,2.930445e+03
3.177151e+03,2.939021e+03
3.188722e+03,2.935599e+03
3.200292e+03,2.932890e+03
3.211863e+03,0.000000e+00
3.223434e+03,0.000000e+00
3.235005e+03,0.000000e+00
3.246576e+03,0.000000e+00
3.258146e+03,0.000000e+00
3.269717e+03,0.000000e+00
3.281288e+03,0.000000e+00
3.292859e+03,0.000000e+00
3.304430e+03,0.000000e+00
3.316000e+03,0.000000e+00
3.327571e+03,0.000000e+00
3.339142e+03,0.000000e+00
3.350713e+03,0.000000e+00
3.362284e+03,0.000000e+00
3.373854e+03,0.000000e+00
3.385425e+03,0.000000e+00
3.396996e+03,0.000000e+00
3.408567e+03,0.000000e+00
3.420138e+03,0.000000e+00
3.431708e+03,0.000000e+00
3.443279e+03,0.000000e+00
3.454850e+03,0.000000e+00
3.466421e+03,0.000000e+00
3.477992e+03,0.000000e+00
3.489563e+03,0.000000e+00
3.500169e+03,0.000000e+00