File: RAMAN_data/20012023_r3/blue fibre14.CSV
9.931763e+01,0.000000e+00
1.108884e+02,0.000000e+00
1.224592e+02,0.000000e+00
1.340300e+02,0.000000e+00
1.456008e+02,0.000000e+00
1.571716e+02,0.000000e+00
1.687424e+02,0.000000e+00
1.803132e+02,0.000000e+00
1.918840e+02,0.000000e+00
2.034548e+02,8.745027e+03
2.150256e+02,8.867940e+03
2.265964e+02,8.976641e+03
2.381673e+02,9.145005e+03
2.497381e+02,9.337760e+03
2.613088e+02,9.435516e+03
2.728796e+02,9.626003e+03
2.844504e+02,9.859296e+03
2.960212e+02,9.817897e+03
3.075920e+02,9.922345e+03
3.191628e+02,1.000095e+04
3.307336e+02,1.014129e+04
3.423044e+02,1.024956e+04
3.538752e+02,1.031967e+04
3.654461e+02,1.039707e+04
3.770169e+02,1.055348e+04
3.885877e+02,1.060831e+04
4.001585e+02,1.067805e+04
4.117293e+02,1.073302e+04
4.233001e+02,1.078121e+04
4.348709e+02,1.087190e+04
4.464417e+02,1.087930e+04
4.580125e+02,1.095202e+04
4.695833e+02,1.102339e+04
4.811541e+02,1.103772e+04
4.927249e+02,1.106760e+04
5.042957e+02,1.113319e+04
5.158665e+02,1.122552e+04
5.274373e+02,1.121157e+04
5.390081e+02,1.129877e+04
5.505789e+02,1.143966e+04
5.621497e+02,1.155232e+04
5.737205e+02,1.133430e+04
5.852913e+02,1.129130e+04
5.968621e+02,1.138781e+04
6.084329e+02,1.144897e+04
6.200037e+02,1.132212e+04
6.315745e+02,1.134766e+04
6.431453e+02,1.129724e+04
6.547161e+02,1.129608e+04
6.662869e+02,1.127633e+04
6.778577e+02,1.123604e+04
6.894285e+02,1.121249e+04
7.009993e+02,1.114800e+04
7.125701e+02,1.112314e+04
7.241409e+02,1.109004e+04
7.357117e+02,1.102137e+04
7.472825e+02,1.100260e+04
7.588533e+02,1.097305e+04
7.704241e+02,1.091866e+04
7.819949e+02,1.092721e+04
7.935657e+02,1.089764e+04
8.051365e+02,1.078092e+04
8.167073e+02,1.069883e+04
8.282781e+02,1.065389e+04
8.398489e+02,1.060284e+04
8.514197e+02,1.052884e+04
8.629905e+02,1.043202e+04
8.745613e+02,1.036209e+04
8.861321e+02,1.036725e+04
8.977029e+02,1.025513e+04
9.092737e+02,1.020074e+04
9.208445e+02,1.012392e+04
9.324153e+02,1.007127e+04
9.439861e+02,9.994417e+03
9.555569e+02,9.924906e+03
9.671277e+02,9.822359e+03
9.786985e+02,9.784467e+03
9.902693e+02,9.655605e+03
1.001840e+03,9.613400e+03
1.013411e+03,9.559056e+03
1.024982e+03,9.477653e+03
1.036552e+03,9.399124e+03
1.048123e+03,9.344178e+03
1.059694e+03,9.315606e+03
1.071265e+03,9.307437e+03
1.082836e+03,9.255111e+03
1.094406e+03,9.152955e+03
1.105977e+03,9.052212e+03
1.117548e+03,8.989894e+03
1.129119e+03,8.918209e+03
1.140690e+03,8.847314e+03
1.152261e+03,8.783635e+03
1.163831e+03,8.713406e+03
1.175402e+03,8.603315e+03
1.186973e+03,8.587714e+03
1.198544e+03,8.548665e+03
1.210115e+03,8.450791e+03
1.221685e+03,8.412438e+03
1.233256e+03,8.332416e+03
1.244827e+03,8.318013e+03
1.256398e+03,8.223044e+03
1.267969e+03,8.114060e+03
1.279539e+03,8.063485e+03
1.291110e+03,8.020745e+03
1.302681e+03,7.957960e+03
1.314252e+03,7.919373e+03
1.325823e+03,7.833826e+03
1.337393e+03,7.841336e+03
1.348964e+03,7.763370e+03
1.360535e+03,7.732802e+03
1.372106e+03,7.673631e+03
1.383677e+03,7.598196e+03
1.395247e+03,7.565333e+03
1.406818e+03,7.485436e+03
1.418389e+03,7.423768e+03
1.429960e+03,7.406208e+03
1.441531e+03,7.335267e+03
1.453101e+03,7.354568e+03
1.464672e+03,7.312068e+03
1.476243e+03,7.222837e+03
1.487814e+03,7.190699e+03
1.499385e+03,7.128720e+03
1.510955e+03,7.144182e+03
1.522526e+03,7.067018e+03
1.534097e+03,6.973003e+03
1.545668e+03,6.908864e+03
1.557239e+03,6.925257e+03
1.568809e+03,7.077541e+03
1.580380e+03,7.025786e+03
1.591951e+03,6.818313e+03
1.603522e+03,6.738742e+03
1.615093e+03,6.689828e+03
1.626663e+03,6.660149e+03
1.638234e+03,6.595329e+03
1.649805e+03,6.507660e+03
1.661376e+03,6.463192e+03
1.672947e+03,6.427945e+03
1.684517e+03,6.377034e+03
1.696088e+03,6.304728e+03
1.707659e+03,6.260521e+03
1.719230e+03,6.203902e+03
1.730801e+03,6.154054e+03
1.742371e+03,6.110422e+03
1.753942e+03,6.056011e+03
1.765513e+03,5.973502e+03
1.777084e+03,5.945702e+03
1.788655e+03,5.885579e+03
1.800225e+03,5.822386e+03
1.811796e+03,5.807157e+03
1.823367e+03,5.722289e+03
1.834938e+03,5.665727e+03
1.846509e+03,5.646292e+03
1.858079e+03,5.594583e+03
1.869650e+03,5.551528e+03
1.881221e+03,5.485474e+03
1.892792e+03,5.452311e+03
1.904363e+03,5.384429e+03
1.915933e+03,5.319300e+03
1.927504e+03,5.291380e+03
1.939075e+03,5.234770e+03
1.950646e+03,5.149886e+03
1.962217e+03,5.126138e+03
1.973787e+03,5.066116e+03
1.985358e+03,5.055000e+03
1.996929e+03,4.969206e+03
2.008500e+03,4.932159e+03
2.020071e+03,4.859802e+03
2.031641e+03,4.843093e+03
2.043212e+03,4.731611e+03
2.054783e+03,4.672749e+03
2.066354e+03,4.691751e+03
2.077925e+03,4.594244e+03
2.089496e+03,4.548731e+03
2.101066e+03,4.492792e+03
2.112637e+03,4.463235e+03
2.124208e+03,4.401822e+03
2.135779e+03,4.323133e+03
2.147350e+03,4.293685e+03
2.158920e+03,4.223344e+03
2.170491e+03,4.157026e+03
2.182062e+03,4.127192e+03
2.193633e+03,4.073403e+03
2.205204e+03,4.041000e+03
2.216774e+03,3.983114e+03
2.228345e+03,3.934838e+03
2.239916e+03,3.881863e+03
2.251487e+03,3.885118e+03
2.263058e+03,3.806342e+03
2.274628e+03,3.778379e+03
2.286199e+03,3.695848e+03
2.297770e+03,3.675024e+03
2.309341e+03,3.647623e+03
2.320912e+03,3.573407e+03
2.332482e+03,3.570406e+03
2.344053e+03,3.504683e+03
2.355624e+03,3.461168e+03
2.367195e+03,3.409498e+03
2.378766e+03,3.377783e+03
2.390336e+03,3.369332e+03
2.401907e+03,3.303625e+03
2.413478e+03,3.268379e+03
2.425049e+03,3.264414e+03
2.436620e+03,3.187094e+03
2.448190e+03,3.118042e+03
2.459761e+03,3.127467e+03
2.471332e+03,3.082595e+03
2.482903e+03,3.064787e+03
2.494474e+03,2.998798e+03
2.506044e+03,2.979390e+03
2.517615e+03,2.912865e+03
2.529186e+03,2.939594e+03
2.540757e+03,2.847185e+03
2.552328e+03,2.855844e+03
2.563898e+03,2.820266e+03
2.575469e+03,2.799426e+03
2.587040e+03,2.793043e+03
2.598611e+03,2.738279e+03
2.610182e+03,2.734859e+03
2.621752e+03,2.697388e+03
2.633323e+03,2.671293e+03
2.644894e+03,2.628416e+03
2.656465e+03,2.591996e+03
2.668036e+03,2.574034e+03
2.679606e+03,2.545183e+03
2.691177e+03,2.505904e+03
2.702748e+03,2.501807e+03
2.714319e+03,2.458659e+03
2.725890e+03,2.451505e+03
2.737460e+03,2.450892e+03
2.749031e+03,2.431369e+03
2.760602e+03,2.373696e+03
2.772173e+03,2.367701e+03
2.783744e+03,2.327362e+03
2.795314e+03,2.307304e+03
2.806885e+03,2.296729e+03
2.818456e+03,2.260829e+03
2.830027e+03,2.278400e+03
2.841598e+03,2.236825e+03
2.853168e+03,2.194421e+03
2.864739e+03,2.198290e+03
2.876310e+03,2.215184e+03
2.887881e+03,2.178488e+03
2.899452e+03,2.143098e+03
2.911022e+03,2.157036e+03
2.922593e+03,2.110486e+03
2.934164e+03,2.071021e+03
2.945735e+03,2.037817e+03
2.957306e+03,2.107129e+03
2.968876e+03,2.032062e+03
2.980447e+03,2.011862e+03
2.992018e+03,2.007664e+03
3.003589e+03,1.964130e+03
3.015160e+03,1.930042e+03
3.026730e+03,1.900579e+03
3.038301e+03,1.930594e+03
3.049872e+03,1.905845e+03
3.061443e+03,1.911928e+03
3.073014e+03,1.870572e+03
3.084584e+03,1.901771e+03
3.096155e+03,1.904353e+03
3.107726e+03,1.903430e+03
3.119297e+03,1.855005e+03
3.130868e+03,1.926891e+03
3.142438e+03,1.867779e+03
3.154009e+03,1.907534e+03
3.165580e+03,1.826256e+03
3.177151e+03,1.853004e+03
3.188722e+03,1.847925e+03
3.200292e+03,1.868324e+03
3.211863e+03,0.000000e+00
3.223434e+03,0.000000e+00
3.235005e+03,0.000000e+00
3.246576e+03,0.000000e+00
3.258146e+03,0.000000e+00
3.269717e+03,0.000000e+00
3.281288e+03,0.000000e+00
3.292859e+03,0.000000e+00
3.304430e+03,0.000000e+00
3.316000e+03,0.000000e+00
3.327571e+03,0.000000e+00
3.339142e+03,0.000000e+00
3.350713e+03,0.000000e+00
3.362284e+03,0.000000e+00
3.373854e+03,0.000000e+00
3.385425e+03,0.000000e+00
3.396996e+03,0.000000e+00
3.408567e+03,0.000000e+00
3.420138e+03,0.000000e+00
3.431708e+03,0.000000e+00
3.443279e+03,0.000000e+00
3.454850e+03,0.000000e+00
3.466421e+03,0.000000e+00
3.477992e+03,0.000000e+00
3.489563e+03,0.000000e+00
3.500169e+03,0.000000e+00