File: RAMAN_data/20012023_r3/blue fibre11.CSV
9.931763e+01,0.000000e+00
1.108884e+02,0.000000e+00
1.224592e+02,0.000000e+00
1.340300e+02,0.000000e+00
1.456008e+02,0.000000e+00
1.571716e+02,0.000000e+00
1.687424e+02,0.000000e+00
1.803132e+02,0.000000e+00
1.918840e+02,0.000000e+00
2.034548e+02,6.171958e+03
2.150256e+02,6.201817e+03
2.265964e+02,6.199416e+03
2.381673e+02,6.261430e+03
2.497381e+02,6.281404e+03
2.613088e+02,6.276624e+03
2.728796e+02,6.320971e+03
2.844504e+02,6.328127e+03
2.960212e+02,6.360468e+03
3.075920e+02,6.339902e+03
3.191628e+02,6.374532e+03
3.307336e+02,6.385308e+03
3.423044e+02,6.408316e+03
3.538752e+02,6.402583e+03
3.654461e+02,6.411370e+03
3.770169e+02,6.467585e+03
3.885877e+02,6.447187e+03
4.001585e+02,6.424773e+03
4.117293e+02,6.431223e+03
4.233001e+02,6.469673e+03
4.348709e+02,6.451070e+03
4.464417e+02,6.443851e+03
4.580125e+02,6.467370e+03
4.695833e+02,6.456781e+03
4.811541e+02,6.455196e+03
4.927249e+02,6.476447e+03
5.042957e+02,6.476284e+03
5.158665e+02,6.495680e+03
5.274373e+02,6.475268e+03
5.390081e+02,6.466251e+03
5.505789e+02,6.474766e+03
5.621497e+02,6.476544e+03
5.737205e+02,6.461422e+03
5.852913e+02,6.447094e+03
5.968621e+02,6.450964e+03
6.084329e+02,6.448694e+03
6.200037e+02,6.447356e+03
6.315745e+02,6.436602e+03
6.431453e+02,6.433291e+03
6.547161e+02,6.444534e+03
6.662869e+02,6.419645e+03
6.778577e+02,6.415605e+03
6.894285e+02,6.386772e+03
7.009993e+02,6.395891e+03
7.125701e+02,6.413594e+03
7.241409e+02,6.399653e+03
7.357117e+02,6.352703e+03
7.472825e+02,6.461063e+03
7.588533e+02,6.358415e+03
7.704241e+02,6.338672e+03
7.819949e+02,6.322623e+03
7.935657e+02,6.319255e+03
8.051365e+02,6.296349e+03
8.167073e+02,6.276737e+03
8.282781e+02,6.300641e+03
8.398489e+02,6.262104e+03
8.514197e+02,6.245951e+03
8.629905e+02,6.224495e+03
8.745613e+02,6.246856e+03
8.861321e+02,6.231236e+03
8.977029e+02,6.207565e+03
9.092737e+02,6.186711e+03
9.208445e+02,6.130627e+03
9.324153e+02,6.131911e+03
9.439861e+02,6.106683e+03
9.555569e+02,6.104040e+03
9.671277e+02,6.104333e+03
9.786985e+02,6.088609e+03
9.902693e+02,6.034497e+03
1.001840e+03,5.992875e+03
1.013411e+03,5.998829e+03
1.024982e+03,6.002442e+03
1.036552e+03,5.999566e+03
1.048123e+03,5.961098e+03
1.059694e+03,5.966998e+03
1.071265e+03,5.963767e+03
1.082836e+03,5.936096e+03
1.094406e+03,5.917261e+03
1.105977e+03,5.929250e+03
1.117548e+03,5.915890e+03
1.129119e+03,5.875023e+03
1.140690e+03,5.878500e+03
1.152261e+03,5.885158e+03
1.163831e+03,5.883393e+03
1.175402e+03,5.817006e+03
1.186973e+03,5.821276e+03
1.198544e+03,5.833506e+03
1.210115e+03,5.798719e+03
1.221685e+03,5.753628e+03
1.233256e+03,5.722365e+03
1.244827e+03,5.722361e+03
1.256398e+03,5.726905e+03
1.267969e+03,5.709075e+03
1.279539e+03,5.690625e+03
1.291110e+03,5.675180e+03
1.302681e+03,5.676193e+03
1.314252e+03,5.661866e+03
1.325823e+03,5.652819e+03
1.337393e+03,5.712332e+03
1.348964e+03,5.654358e+03
1.360535e+03,5.547322e+03
1.372106e+03,5.509306e+03
1.383677e+03,5.492022e+03
1.395247e+03,5.473000e+03
1.406818e+03,5.441120e+03
1.418389e+03,5.421406e+03
1.429960e+03,5.396071e+03
1.441531e+03,5.372298e+03
1.453101e+03,5.347478e+03
1.464672e+03,5.330653e+03
1.476243e+03,5.297229e+03
1.487814e+03,5.265024e+03
1.499385e+03,5.246702e+03
1.510955e+03,5.231986e+03
1.522526e+03,5.238172e+03
1.534097e+03,5.257281e+03
1.545668e+03,5.277005e+03
1.557239e+03,5.203992e+03
1.568809e+03,5.199253e+03
1.580380e+03,5.156729e+03
1.591951e+03,5.149115e+03
1.603522e+03,5.126032e+03
1.615093e+03,5.086161e+03
1.626663e+03,5.045554e+03
1.638234e+03,5.005545e+03
1.649805e+03,4.979600e+03
1.661376e+03,4.930475e+03
1.672947e+03,4.923040e+03
1.684517e+03,4.872023e+03
1.696088e+03,4.857201e+03
1.707659e+03,4.820783e+03
1.719230e+03,4.815429e+03
1.730801e+03,4.803123e+03
1.742371e+03,4.803025e+03
1.753942e+03,4.771964e+03
1.765513e+03,4.746381e+03
1.777084e+03,4.731967e+03
1.788655e+03,4.699015e+03
1.800225e+03,4.695384e+03
1.811796e+03,4.675481e+03
1.823367e+03,4.636114e+03
1.834938e+03,4.631893e+03
1.846509e+03,4.627218e+03
1.858079e+03,4.590111e+03
1.869650e+03,4.512722e+03
1.881221e+03,4.525096e+03
1.892792e+03,4.523037e+03
1.904363e+03,4.479673e+03
1.915933e+03,4.502210e+03
1.927504e+03,4.473086e+03
1.939075e+03,4.407455e+03
1.950646e+03,4.411090e+03
1.962217e+03,4.347299e+03
1.973787e+03,4.301093e+03
1.985358e+03,4.324483e+03
1.996929e+03,4.320138e+03
2.008500e+03,4.276372e+03
2.020071e+03,4.257410e+03
2.031641e+03,4.235586e+03
2.043212e+03,4.225710e+03
2.054783e+03,4.147220e+03
2.066354e+03,4.143321e+03
2.077925e+03,4.110970e+03
2.089496e+03,4.087456e+03
2.101066e+03,4.047025e+03
2.112637e+03,4.043222e+03
2.124208e+03,4.026401e+03
2.135779e+03,3.992770e+03
2.147350e+03,3.936897e+03
2.158920e+03,3.932957e+03
2.170491e+03,3.887744e+03
2.182062e+03,3.865940e+03
2.193633e+03,3.829241e+03
2.205204e+03,3.829376e+03
2.216774e+03,3.783169e+03
2.228345e+03,3.743889e+03
2.239916e+03,3.699586e+03
2.251487e+03,3.702054e+03
2.263058e+03,3.673583e+03
2.274628e+03,3.620008e+03
2.286199e+03,3.600266e+03
2.297770e+03,3.565794e+03
2.309341e+03,3.557730e+03
2.320912e+03,3.492438e+03
2.332482e+03,3.466885e+03
2.344053e+03,3.459380e+03
2.355624e+03,3.421445e+03
2.367195e+03,3.369525e+03
2.378766e+03,3.371870e+03
2.390336e+03,3.325703e+03
2.401907e+03,3.320125e+03
2.413478e+03,3.283758e+03
2.425049e+03,3.255347e+03
2.436620e+03,3.243165e+03
2.448190e+03,3.207661e+03
2.459761e+03,3.187412e+03
2.471332e+03,3.152514e+03
2.482903e+03,3.126466e+03
2.494474e+03,3.099294e+03
2.506044e+03,3.085978e+03
2.517615e+03,3.072238e+03
2.529186e+03,3.018194e+03
2.540757e+03,3.027566e+03
2.552328e+03,2.975395e+03
2.563898e+03,2.984198e+03
2.575469e+03,2.967092e+03
2.587040e+03,2.946777e+03
2.598611e+03,2.923122e+03
2.610182e+03,2.883161e+03
2.621752e+03,2.882438e+03
2.633323e+03,2.883385e+03
2.644894e+03,2.844464e+03
2.656465e+03,2.823888e+03
2.668036e+03,2.786928e+03
2.679606e+03,2.799806e+03
2.691177e+03,2.783894e+03
2.702748e+03,2.763970e+03
2.714319e+03,2.747862e+03
2.725890e+03,2.732550e+03
2.737460e+03,2.703344e+03
2.749031e+03,2.687626e+03
2.760602e+03,2.675656e+03
2.772173e+03,2.707618e+03
2.783744e+03,2.653125e+03
2.795314e+03,2.627677e+03
2.806885e+03,2.629884e+03
2.818456e+03,2.633530e+03
2.830027e+03,2.608478e+03
2.841598e+03,2.609788e+03
2.853168e+03,2.568001e+03
2.864739e+03,2.592271e+03
2.876310e+03,2.576126e+03
2.887881e+03,2.553295e+03
2.899452e+03,2.572091e+03
2.911022e+03,2.552137e+03
2.922593e+03,2.510680e+03
2.934164e+03,2.499401e+03
2.945735e+03,2.485049e+03
2.957306e+03,2.532508e+03
2.968876e+03,2.468106e+03
2.980447e+03,2.473475e+03
2.992018e+03,2.437121e+03
3.003589e+03,2.447151e+03
3.015160e+03,2.428265e+03
3.026730e+03,2.386450e+03
3.038301e+03,2.404498e+03
3.049872e+03,2.382386e+03
3.061443e+03,2.337360e+03
3.073014e+03,2.373092e+03
3.084584e+03,2.319360e+03
3.096155e+03,2.383586e+03
3.107726e+03,2.391484e+03
3.119297e+03,2.360821e+03
3.130868e+03,2.384481e+03
3.142438e+03,2.309112e+03
3.154009e+03,2.378571e+03
3.165580e+03,2.391106e+03
3.177151e+03,2.335882e+03
3.188722e+03,2.364589e+03
3.200292e+03,2.414367e+03
3.211863e+03,0.000000e+00
3.223434e+03,0.000000e+00
3.235005e+03,0.000000e+00
3.246576e+03,0.000000e+00
3.258146e+03,0.000000e+00
3.269717e+03,0.000000e+00
3.281288e+03,0.000000e+00
3.292859e+03,0.000000e+00
3.304430e+03,0.000000e+00
3.316000e+03,0.000000e+00
3.327571e+03,0.000000e+00
3.339142e+03,0.000000e+00
3.350713e+03,0.000000e+00
3.362284e+03,0.000000e+00
3.373854e+03,0.000000e+00
3.385425e+03,0.000000e+00
3.396996e+03,0.000000e+00
3.408567e+03,0.000000e+00
3.420138e+03,0.000000e+00
3.431708e+03,0.000000e+00
3.443279e+03,0.000000e+00
3.454850e+03,0.000000e+00
3.466421e+03,0.000000e+00
3.477992e+03,0.000000e+00
3.489563e+03,0.000000e+00
3.500169e+03,0.000000e+00