File: RAMAN_data/20012023_r3/blue fibre8.CSV
9.931763e+01,0.000000e+00
1.108884e+02,0.000000e+00
1.224592e+02,0.000000e+00
1.340300e+02,0.000000e+00
1.456008e+02,0.000000e+00
1.571716e+02,0.000000e+00
1.687424e+02,0.000000e+00
1.803132e+02,0.000000e+00
1.918840e+02,0.000000e+00
2.034548e+02,1.051899e+04
2.150256e+02,1.057905e+04
2.265964e+02,1.068651e+04
2.381673e+02,1.083713e+04
2.497381e+02,1.092278e+04
2.613088e+02,1.101875e+04
2.728796e+02,1.114345e+04
2.844504e+02,1.128443e+04
2.960212e+02,1.138987e+04
3.075920e+02,1.148845e+04
3.191628e+02,1.160775e+04
3.307336e+02,1.175910e+04
3.423044e+02,1.188976e+04
3.538752e+02,1.203829e+04
3.654461e+02,1.215099e+04
3.770169e+02,1.231110e+04
3.885877e+02,1.246675e+04
4.001585e+02,1.259455e+04
4.117293e+02,1.274362e+04
4.233001e+02,1.288550e+04
4.348709e+02,1.304495e+04
4.464417e+02,1.321596e+04
4.580125e+02,1.333318e+04
4.695833e+02,1.347341e+04
4.811541e+02,1.360224e+04
4.927249e+02,1.374474e+04
5.042957e+02,1.387491e+04
5.158665e+02,1.399692e+04
5.274373e+02,1.410203e+04
5.390081e+02,1.416972e+04
5.505789e+02,1.428556e+04
5.621497e+02,1.439837e+04
5.737205e+02,1.446632e+04
5.852913e+02,1.457575e+04
5.968621e+02,1.471280e+04
6.084329e+02,1.480358e+04
6.200037e+02,1.484330e+04
6.315745e+02,1.490827e+04
6.431453e+02,1.500741e+04
6.547161e+02,1.510578e+04
6.662869e+02,1.514584e+04
6.778577e+02,1.514799e+04
6.894285e+02,1.519395e+04
7.009993e+02,1.527256e+04
7.125701e+02,1.527661e+04
7.241409e+02,1.527022e+04
7.357117e+02,1.526974e+04
7.472825e+02,1.529838e+04
7.588533e+02,1.525349e+04
7.704241e+02,1.520913e+04
7.819949e+02,1.520059e+04
7.935657e+02,1.517592e+04
8.051365e+02,1.511077e+04
8.167073e+02,1.508295e+04
8.282781e+02,1.504160e+04
8.398489e+02,1.497732e+04
8.514197e+02,1.485258e+04
8.629905e+02,1.478478e+04
8.745613e+02,1.470254e+04
8.861321e+02,1.467136e+04
8.977029e+02,1.454933e+04
9.092737e+02,1.445538e+04
9.208445e+02,1.435555e+04
9.324153e+02,1.430228e+04
9.439861e+02,1.419758e+04
9.555569e+02,1.405309e+04
9.671277e+02,1.394241e+04
9.786985e+02,1.383075e+04
9.902693e+02,1.367490e+04
1.001840e+03,1.353509e+04
1.013411e+03,1.346450e+04
1.024982e+03,1.337917e+04
1.036552e+03,1.323313e+04
1.048123e+03,1.311727e+04
1.059694e+03,1.305441e+04
1.071265e+03,1.300379e+04
1.082836e+03,1.290117e+04
1.094406e+03,1.274686e+04
1.105977e+03,1.268010e+04
1.117548e+03,1.262516e+04
1.129119e+03,1.251101e+04
1.140690e+03,1.242159e+04
1.152261e+03,1.239111e+04
1.163831e+03,1.232199e+04
1.175402e+03,1.221769e+04
1.186973e+03,1.215562e+04
1.198544e+03,1.215958e+04
1.210115e+03,1.211081e+04
1.221685e+03,1.206943e+04
1.233256e+03,1.204628e+04
1.244827e+03,1.207817e+04
1.256398e+03,1.208695e+04
1.267969e+03,1.206690e+04
1.279539e+03,1.209122e+04
1.291110e+03,1.213679e+04
1.302681e+03,1.218424e+04
1.314252e+03,1.220847e+04
1.325823e+03,1.225572e+04
1.337393e+03,1.235253e+04
1.348964e+03,1.241398e+04
1.360535e+03,1.246655e+04
1.372106e+03,1.257025e+04
1.383677e+03,1.270507e+04
1.395247e+03,1.281187e+04
1.406818e+03,1.293171e+04
1.418389e+03,1.311750e+04
1.429960e+03,1.328471e+04
1.441531e+03,1.341893e+04
1.453101e+03,1.357500e+04
1.464672e+03,1.378792e+04
1.476243e+03,1.403125e+04
1.487814e+03,1.425464e+04
1.499385e+03,1.445623e+04
1.510955e+03,1.473543e+04
1.522526e+03,1.504684e+04
1.534097e+03,1.532431e+04
1.545668e+03,1.558818e+04
1.557239e+03,1.594422e+04
1.568809e+03,1.627546e+04
1.580380e+03,1.647933e+04
1.591951e+03,1.642963e+04
1.603522e+03,1.648354e+04
1.615093e+03,1.649954e+04
1.626663e+03,1.620734e+04
1.638234e+03,1.608553e+04
1.649805e+03,1.587592e+04
1.661376e+03,1.569343e+04
1.672947e+03,1.549321e+04
1.684517e+03,1.526933e+04
1.696088e+03,1.512616e+04
1.707659e+03,1.494605e+04
1.719230e+03,1.472624e+04
1.730801e+03,1.454243e+04
1.742371e+03,1.435198e+04
1.753942e+03,1.414026e+04
1.765513e+03,1.391249e+04
1.777084e+03,1.369930e+04
1.788655e+03,1.352450e+04
1.800225e+03,1.329817e+04
1.811796e+03,1.319786e+04
1.823367e+03,1.292044e+04
1.834938e+03,1.274555e+04
1.846509e+03,1.259318e+04
1.858079e+03,1.238969e+04
1.869650e+03,1.220688e+04
1.881221e+03,1.204778e+04
1.892792e+03,1.183391e+04
1.904363e+03,1.163108e+04
1.915933e+03,1.150287e+04
1.927504e+03,1.125296e+04
1.939075e+03,1.106333e+04
1.950646e+03,1.087481e+04
1.962217e+03,1.074217e+04
1.973787e+03,1.058734e+04
1.985358e+03,1.044280e+04
1.996929e+03,1.020302e+04
2.008500e+03,1.003145e+04
2.020071e+03,9.937301e+03
2.031641e+03,9.775282e+03
2.043212e+03,9.565941e+03
2.054783e+03,9.460208e+03
2.066354e+03,9.280199e+03
2.077925e+03,9.113868e+03
2.089496e+03,8.987204e+03
2.101066e+03,8.819938e+03
2.112637e+03,8.686568e+03
2.124208e+03,8.591302e+03
2.135779e+03,8.398999e+03
2.147350e+03,8.272583e+03
2.158920e+03,8.197574e+03
2.170491e+03,8.136107e+03
2.182062e+03,7.960436e+03
2.193633e+03,7.862550e+03
2.205204e+03,7.808287e+03
2.216774e+03,7.656268e+03
2.228345e+03,7.561530e+03
2.239916e+03,7.415495e+03
2.251487e+03,7.386934e+03
2.263058e+03,7.261963e+03
2.274628e+03,7.134351e+03
2.286199e+03,7.089547e+03
2.297770e+03,6.991453e+03
2.309341e+03,6.913468e+03
2.320912e+03,6.828569e+03
2.332482e+03,6.765792e+03
2.344053e+03,6.731797e+03
2.355624e+03,6.640140e+03
2.367195e+03,6.519362e+03
2.378766e+03,6.479241e+03
2.390336e+03,6.403171e+03
2.401907e+03,6.332534e+03
2.413478e+03,6.307485e+03
2.425049e+03,6.235003e+03
2.436620e+03,6.163282e+03
2.448190e+03,6.137062e+03
2.459761e+03,6.048641e+03
2.471332e+03,5.993969e+03
2.482903e+03,5.939917e+03
2.494474e+03,5.939739e+03
2.506044e+03,5.869333e+03
2.517615e+03,5.792032e+03
2.529186e+03,5.799991e+03
2.540757e+03,5.707309e+03
2.552328e+03,5.696774e+03
2.563898e+03,5.688626e+03
2.575469e+03,5.602372e+03
2.587040e+03,5.562931e+03
2.598611e+03,5.548800e+03
2.610182e+03,5.516408e+03
2.621752e+03,5.471234e+03
2.633323e+03,5.443311e+03
2.644894e+03,5.380200e+03
2.656465e+03,5.363677e+03
2.668036e+03,5.364938e+03
2.679606e+03,5.269805e+03
2.691177e+03,5.238354e+03
2.702748e+03,5.190444e+03
2.714319e+03,5.209610e+03
2.725890e+03,5.106912e+03
2.737460e+03,5.059679e+03
2.749031e+03,5.066938e+03
2.760602e+03,5.006498e+03
2.772173e+03,4.992541e+03
2.783744e+03,4.963627e+03
2.795314e+03,4.904031e+03
2.806885e+03,4.883474e+03
2.818456e+03,4.817346e+03
2.830027e+03,4.828754e+03
2.841598e+03,4.772609e+03
2.853168e+03,4.728196e+03
2.864739e+03,4.690428e+03
2.876310e+03,4.665946e+03
2.887881e+03,4.697040e+03
2.899452e+03,4.557120e+03
2.911022e+03,4.487055e+03
2.922593e+03,4.500975e+03
2.934164e+03,4.444209e+03
2.945735e+03,4.388148e+03
2.957306e+03,4.376807e+03
2.968876e+03,4.348580e+03
2.980447e+03,4.300896e+03
2.992018e+03,4.298436e+03
3.003589e+03,4.258967e+03
3.015160e+03,4.216933e+03
3.026730e+03,4.168471e+03
3.038301e+03,4.104410e+03
3.049872e+03,4.153019e+03
3.061443e+03,4.107251e+03
3.073014e+03,4.052422e+03
3.084584e+03,4.086989e+03
3.096155e+03,4.001748e+03
3.107726e+03,4.015314e+03
3.119297e+03,4.007144e+03
3.130868e+03,3.975281e+03
3.142438e+03,3.900555e+03
3.154009e+03,3.911324e+03
3.165580e+03,3.981969e+03
3.177151e+03,3.908034e+03
3.188722e+03,3.867149e+03
3.200292e+03,3.849871e+03
3.211863e+03,0.000000e+00
3.223434e+03,0.000000e+00
3.235005e+03,0.000000e+00
3.246576e+03,0.000000e+00
3.258146e+03,0.000000e+00
3.269717e+03,0.000000e+00
3.281288e+03,0.000000e+00
3.292859e+03,0.000000e+00
3.304430e+03,0.000000e+00
3.316000e+03,0.000000e+00
3.327571e+03,0.000000e+00
3.339142e+03,0.000000e+00
3.350713e+03,0.000000e+00
3.362284e+03,0.000000e+00
3.373854e+03,0.000000e+00
3.385425e+03,0.000000e+00
3.396996e+03,0.000000e+00
3.408567e+03,0.000000e+00
3.420138e+03,0.000000e+00
3.431708e+03,0.000000e+00
3.443279e+03,0.000000e+00
3.454850e+03,0.000000e+00
3.466421e+03,0.000000e+00
3.477992e+03,0.000000e+00
3.489563e+03,0.000000e+00
3.500169e+03,0.000000e+00