File: RAMAN_data/20012023_r3/blue fibre15.CSV
9.931763e+01,0.000000e+00
1.108884e+02,0.000000e+00
1.224592e+02,0.000000e+00
1.340300e+02,0.000000e+00
1.456008e+02,0.000000e+00
1.571716e+02,0.000000e+00
1.687424e+02,0.000000e+00
1.803132e+02,0.000000e+00
1.918840e+02,0.000000e+00
2.034548e+02,6.289536e+03
2.150256e+02,6.348030e+03
2.265964e+02,6.358506e+03
2.381673e+02,6.425587e+03
2.497381e+02,6.452198e+03
2.613088e+02,6.477084e+03
2.728796e+02,6.536801e+03
2.844504e+02,6.579856e+03
2.960212e+02,6.611467e+03
3.075920e+02,6.629937e+03
3.191628e+02,6.630251e+03
3.307336e+02,6.683140e+03
3.423044e+02,6.691630e+03
3.538752e+02,6.694367e+03
3.654461e+02,6.698528e+03
3.770169e+02,6.751062e+03
3.885877e+02,6.728478e+03
4.001585e+02,6.742272e+03
4.117293e+02,6.721704e+03
4.233001e+02,6.758936e+03
4.348709e+02,6.727637e+03
4.464417e+02,6.730055e+03
4.580125e+02,6.720319e+03
4.695833e+02,6.681875e+03
4.811541e+02,6.689122e+03
4.927249e+02,6.702048e+03
5.042957e+02,6.661411e+03
5.158665e+02,6.650108e+03
5.274373e+02,6.612996e+03
5.390081e+02,6.581051e+03
5.505789e+02,6.580005e+03
5.621497e+02,6.593132e+03
5.737205e+02,6.536002e+03
5.852913e+02,6.549870e+03
5.968621e+02,6.542311e+03
6.084329e+02,6.505852e+03
6.200037e+02,6.492157e+03
6.315745e+02,6.462958e+03
6.431453e+02,6.427153e+03
6.547161e+02,6.398604e+03
6.662869e+02,6.389227e+03
6.778577e+02,6.325540e+03
6.894285e+02,6.281755e+03
7.009993e+02,6.276682e+03
7.125701e+02,6.219610e+03
7.241409e+02,6.197491e+03
7.357117e+02,6.117088e+03
7.472825e+02,6.117847e+03
7.588533e+02,6.072050e+03
7.704241e+02,6.024280e+03
7.819949e+02,5.992404e+03
7.935657e+02,5.947619e+03
8.051365e+02,5.905430e+03
8.167073e+02,5.864404e+03
8.282781e+02,5.869369e+03
8.398489e+02,5.833967e+03
8.514197e+02,5.775984e+03
8.629905e+02,5.749560e+03
8.745613e+02,5.719647e+03
8.861321e+02,5.671093e+03
8.977029e+02,5.613048e+03
9.092737e+02,5.571892e+03
9.208445e+02,5.502891e+03
9.324153e+02,5.478587e+03
9.439861e+02,5.421621e+03
9.555569e+02,5.405683e+03
9.671277e+02,5.364313e+03
9.786985e+02,5.333339e+03
9.902693e+02,5.286579e+03
1.001840e+03,5.237938e+03
1.013411e+03,5.194234e+03
1.024982e+03,5.187129e+03
1.036552e+03,5.156366e+03
1.048123e+03,5.130540e+03
1.059694e+03,5.089744e+03
1.071265e+03,5.065928e+03
1.082836e+03,5.042989e+03
1.094406e+03,5.038639e+03
1.105977e+03,4.961822e+03
1.117548e+03,4.982712e+03
1.129119e+03,4.929702e+03
1.140690e+03,4.874960e+03
1.152261e+03,4.877476e+03
1.163831e+03,4.822825e+03
1.175402e+03,4.772595e+03
1.186973e+03,4.752581e+03
1.198544e+03,4.738685e+03
1.210115e+03,4.717131e+03
1.221685e+03,4.684510e+03
1.233256e+03,4.688109e+03
1.244827e+03,4.656839e+03
1.256398e+03,4.632677e+03
1.267969e+03,4.614295e+03
1.279539e+03,4.598505e+03
1.291110e+03,4.602288e+03
1.302681e+03,4.574969e+03
1.314252e+03,4.533587e+03
1.325823e+03,4.523604e+03
1.337393e+03,4.559289e+03
1.348964e+03,4.496394e+03
1.360535e+03,4.486775e+03
1.372106e+03,4.460919e+03
1.383677e+03,4.498766e+03
1.395247e+03,4.447458e+03
1.406818e+03,4.425511e+03
1.418389e+03,4.413439e+03
1.429960e+03,4.413907e+03
1.441531e+03,4.382561e+03
1.453101e+03,4.356093e+03
1.464672e+03,4.355267e+03
1.476243e+03,4.338726e+03
1.487814e+03,4.328244e+03
1.499385e+03,4.305630e+03
1.510955e+03,4.300071e+03
1.522526e+03,4.282651e+03
1.534097e+03,4.262469e+03
1.545668e+03,4.232862e+03
1.557239e+03,4.236307e+03
1.568809e+03,4.227396e+03
1.580380e+03,4.222540e+03
1.591951e+03,4.189797e+03
1.603522e+03,4.198967e+03
1.615093e+03,4.162567e+03
1.626663e+03,4.167324e+03
1.638234e+03,4.118916e+03
1.649805e+03,4.092273e+03
1.661376e+03,4.090836e+03
1.672947e+03,4.052856e+03
1.684517e+03,4.049468e+03
1.696088e+03,4.008250e+03
1.707659e+03,4.002945e+03
1.719230e+03,3.986160e+03
1.730801e+03,3.957200e+03
1.742371e+03,3.930915e+03
1.753942e+03,3.909866e+03
1.765513e+03,3.896782e+03
1.777084e+03,3.880073e+03
1.788655e+03,3.863111e+03
1.800225e+03,3.814990e+03
1.811796e+03,3.825390e+03
1.823367e+03,3.776503e+03
1.834938e+03,3.756779e+03
1.846509e+03,3.733694e+03
1.858079e+03,3.715231e+03
1.869650e+03,3.677951e+03
1.881221e+03,3.653684e+03
1.892792e+03,3.636308e+03
1.904363e+03,3.590871e+03
1.915933e+03,3.571506e+03
1.927504e+03,3.542661e+03
1.939075e+03,3.528261e+03
1.950646e+03,3.516125e+03
1.962217e+03,3.477451e+03
1.973787e+03,3.425480e+03
1.985358e+03,3.404982e+03
1.996929e+03,3.372279e+03
2.008500e+03,3.363472e+03
2.020071e+03,3.328193e+03
2.031641e+03,3.312532e+03
2.043212e+03,3.242172e+03
2.054783e+03,3.244085e+03
2.066354e+03,3.190699e+03
2.077925e+03,3.182101e+03
2.089496e+03,3.135771e+03
2.101066e+03,3.094329e+03
2.112637e+03,3.080735e+03
2.124208e+03,3.051828e+03
2.135779e+03,2.991828e+03
2.147350e+03,2.958886e+03
2.158920e+03,2.944547e+03
2.170491e+03,2.904773e+03
2.182062e+03,2.887058e+03
2.193633e+03,2.857315e+03
2.205204e+03,2.847469e+03
2.216774e+03,2.807673e+03
2.228345e+03,2.766915e+03
2.239916e+03,2.766942e+03
2.251487e+03,2.719431e+03
2.263058e+03,2.699927e+03
2.274628e+03,2.665893e+03
2.286199e+03,2.620509e+03
2.297770e+03,2.607638e+03
2.309341e+03,2.568788e+03
2.320912e+03,2.542451e+03
2.332482e+03,2.526656e+03
2.344053e+03,2.508660e+03
2.355624e+03,2.478092e+03
2.367195e+03,2.424937e+03
2.378766e+03,2.441252e+03
2.390336e+03,2.395457e+03
2.401907e+03,2.369180e+03
2.413478e+03,2.359176e+03
2.425049e+03,2.337381e+03
2.436620e+03,2.311686e+03
2.448190e+03,2.284190e+03
2.459761e+03,2.282515e+03
2.471332e+03,2.230959e+03
2.482903e+03,2.221558e+03
2.494474e+03,2.195563e+03
2.506044e+03,2.166371e+03
2.517615e+03,2.171687e+03
2.529186e+03,2.147302e+03
2.540757e+03,2.107646e+03
2.552328e+03,2.095157e+03
2.563898e+03,2.081278e+03
2.575469e+03,2.036082e+03
2.587040e+03,2.037623e+03
2.598611e+03,2.032541e+03
2.610182e+03,1.999677e+03
2.621752e+03,1.979127e+03
2.633323e+03,1.945012e+03
2.644894e+03,1.930747e+03
2.656465e+03,1.914953e+03
2.668036e+03,1.901484e+03
2.679606e+03,1.896893e+03
2.691177e+03,1.890363e+03
2.702748e+03,1.862293e+03
2.714319e+03,1.853610e+03
2.725890e+03,1.798031e+03
2.737460e+03,1.818655e+03
2.749031e+03,1.809561e+03
2.760602e+03,1.774303e+03
2.772173e+03,1.757766e+03
2.783744e+03,1.761850e+03
2.795314e+03,1.724413e+03
2.806885e+03,1.724302e+03
2.818456e+03,1.720758e+03
2.830027e+03,1.679509e+03
2.841598e+03,1.699089e+03
2.853168e+03,1.690178e+03
2.864739e+03,1.665714e+03
2.876310e+03,1.689631e+03
2.887881e+03,1.683403e+03
2.899452e+03,1.675231e+03
2.911022e+03,1.634196e+03
2.922593e+03,1.611212e+03
2.934164e+03,1.620794e+03
2.945735e+03,1.602577e+03
2.957306e+03,1.620141e+03
2.968876e+03,1.555226e+03
2.980447e+03,1.516808e+03
2.992018e+03,1.529652e+03
3.003589e+03,1.522668e+03
3.015160e+03,1.501775e+03
3.026730e+03,1.472857e+03
3.038301e+03,1.496346e+03
3.049872e+03,1.475600e+03
3.061443e+03,1.495344e+03
3.073014e+03,1.469310e+03
3.084584e+03,1.496643e+03
3.096155e+03,1.486225e+03
3.107726e+03,1.465060e+03
3.119297e+03,1.430300e+03
3.130868e+03,1.459794e+03
3.142438e+03,1.456992e+03
3.154009e+03,1.438827e+03
3.165580e+03,1.506081e+03
3.177151e+03,1.433772e+03
3.188722e+03,1.412674e+03
3.200292e+03,1.491998e+03
3.211863e+03,0.000000e+00
3.223434e+03,0.000000e+00
3.235005e+03,0.000000e+00
3.246576e+03,0.000000e+00
3.258146e+03,0.000000e+00
3.269717e+03,0.000000e+00
3.281288e+03,0.000000e+00
3.292859e+03,0.000000e+00
3.304430e+03,0.000000e+00
3.316000e+03,0.000000e+00
3.327571e+03,0.000000e+00
3.339142e+03,0.000000e+00
3.350713e+03,0.000000e+00
3.362284e+03,0.000000e+00
3.373854e+03,0.000000e+00
3.385425e+03,0.000000e+00
3.396996e+03,0.000000e+00
3.408567e+03,0.000000e+00
3.420138e+03,0.000000e+00
3.431708e+03,0.000000e+00
3.443279e+03,0.000000e+00
3.454850e+03,0.000000e+00
3.466421e+03,0.000000e+00
3.477992e+03,0.000000e+00
3.489563e+03,0.000000e+00
3.500169e+03,0.000000e+00