File: RAMAN_data/20012023_r3/blue fibre5.CSV
9.931763e+01,0.000000e+00
1.108884e+02,0.000000e+00
1.224592e+02,0.000000e+00
1.340300e+02,0.000000e+00
1.456008e+02,0.000000e+00
1.571716e+02,0.000000e+00
1.687424e+02,0.000000e+00
1.803132e+02,0.000000e+00
1.918840e+02,0.000000e+00
2.034548e+02,8.708704e+03
2.150256e+02,8.763166e+03
2.265964e+02,8.807582e+03
2.381673e+02,8.875292e+03
2.497381e+02,8.930671e+03
2.613088e+02,8.968249e+03
2.728796e+02,9.001488e+03
2.844504e+02,9.093869e+03
2.960212e+02,9.070375e+03
3.075920e+02,9.099649e+03
3.191628e+02,9.127371e+03
3.307336e+02,9.164429e+03
3.423044e+02,9.166885e+03
3.538752e+02,9.169285e+03
3.654461e+02,9.169936e+03
3.770169e+02,9.221035e+03
3.885877e+02,9.219719e+03
4.001585e+02,9.159792e+03
4.117293e+02,9.210099e+03
4.233001e+02,9.190971e+03
4.348709e+02,9.207201e+03
4.464417e+02,9.196004e+03
4.580125e+02,9.193090e+03
4.695833e+02,9.170683e+03
4.811541e+02,9.158995e+03
4.927249e+02,9.155665e+03
5.042957e+02,9.122959e+03
5.158665e+02,9.141370e+03
5.274373e+02,9.147889e+03
5.390081e+02,9.110922e+03
5.505789e+02,9.124401e+03
5.621497e+02,9.124387e+03
5.737205e+02,9.035934e+03
5.852913e+02,9.016446e+03
5.968621e+02,9.034391e+03
6.084329e+02,9.024017e+03
6.200037e+02,8.930965e+03
6.315745e+02,8.912319e+03
6.431453e+02,8.857854e+03
6.547161e+02,8.876890e+03
6.662869e+02,8.801014e+03
6.778577e+02,8.758858e+03
6.894285e+02,8.732174e+03
7.009993e+02,8.712177e+03
7.125701e+02,8.679454e+03
7.241409e+02,8.624927e+03
7.357117e+02,8.606314e+03
7.472825e+02,8.563968e+03
7.588533e+02,8.527217e+03
7.704241e+02,8.476116e+03
7.819949e+02,8.486402e+03
7.935657e+02,8.474947e+03
8.051365e+02,8.335224e+03
8.167073e+02,8.316554e+03
8.282781e+02,8.297054e+03
8.398489e+02,8.266146e+03
8.514197e+02,8.197917e+03
8.629905e+02,8.143382e+03
8.745613e+02,8.137510e+03
8.861321e+02,8.123688e+03
8.977029e+02,8.080979e+03
9.092737e+02,8.019109e+03
9.208445e+02,7.950098e+03
9.324153e+02,7.946462e+03
9.439861e+02,7.869361e+03
9.555569e+02,7.859519e+03
9.671277e+02,7.808820e+03
9.786985e+02,7.790725e+03
9.902693e+02,7.708050e+03
1.001840e+03,7.664455e+03
1.013411e+03,7.659167e+03
1.024982e+03,7.621085e+03
1.036552e+03,7.607678e+03
1.048123e+03,7.548162e+03
1.059694e+03,7.543529e+03
1.071265e+03,7.537972e+03
1.082836e+03,7.529175e+03
1.094406e+03,7.483760e+03
1.105977e+03,7.455453e+03
1.117548e+03,7.426796e+03
1.129119e+03,7.392190e+03
1.140690e+03,7.356446e+03
1.152261e+03,7.337458e+03
1.163831e+03,7.318054e+03
1.175402e+03,7.271782e+03
1.186973e+03,7.259683e+03
1.198544e+03,7.264771e+03
1.210115e+03,7.238351e+03
1.221685e+03,7.187439e+03
1.233256e+03,7.163108e+03
1.244827e+03,7.131286e+03
1.256398e+03,7.107427e+03
1.267969e+03,7.071864e+03
1.279539e+03,7.067507e+03
1.291110e+03,7.032133e+03
1.302681e+03,7.038524e+03
1.314252e+03,7.002836e+03
1.325823e+03,6.966564e+03
1.337393e+03,6.991194e+03
1.348964e+03,6.953306e+03
1.360535e+03,6.893299e+03
1.372106e+03,6.856482e+03
1.383677e+03,6.844889e+03
1.395247e+03,6.745404e+03
1.406818e+03,6.725688e+03
1.418389e+03,6.703319e+03
1.429960e+03,6.681511e+03
1.441531e+03,6.637575e+03
1.453101e+03,6.582325e+03
1.464672e+03,6.601548e+03
1.476243e+03,6.539762e+03
1.487814e+03,6.506885e+03
1.499385e+03,6.453417e+03
1.510955e+03,6.470658e+03
1.522526e+03,6.436878e+03
1.534097e+03,6.388316e+03
1.545668e+03,6.342953e+03
1.557239e+03,6.349369e+03
1.568809e+03,6.375380e+03
1.580380e+03,6.354919e+03
1.591951e+03,6.306945e+03
1.603522e+03,6.291275e+03
1.615093e+03,6.219320e+03
1.626663e+03,6.156788e+03
1.638234e+03,6.107590e+03
1.649805e+03,6.048428e+03
1.661376e+03,6.022688e+03
1.672947e+03,5.998226e+03
1.684517e+03,5.915187e+03
1.696088e+03,5.877785e+03
1.707659e+03,5.859826e+03
1.719230e+03,5.813841e+03
1.730801e+03,5.783519e+03
1.742371e+03,5.762425e+03
1.753942e+03,5.726183e+03
1.765513e+03,5.693291e+03
1.777084e+03,5.640562e+03
1.788655e+03,5.625282e+03
1.800225e+03,5.578998e+03
1.811796e+03,5.500326e+03
1.823367e+03,5.493141e+03
1.834938e+03,5.473528e+03
1.846509e+03,5.443972e+03
1.858079e+03,5.387721e+03
1.869650e+03,5.351234e+03
1.881221e+03,5.314797e+03
1.892792e+03,5.268295e+03
1.904363e+03,5.214952e+03
1.915933e+03,5.185416e+03
1.927504e+03,5.160699e+03
1.939075e+03,5.138750e+03
1.950646e+03,5.085081e+03
1.962217e+03,5.028085e+03
1.973787e+03,5.014539e+03
1.985358e+03,4.984448e+03
1.996929e+03,4.907228e+03
2.008500e+03,4.866376e+03
2.020071e+03,4.861992e+03
2.031641e+03,4.801138e+03
2.043212e+03,4.764932e+03
2.054783e+03,4.702091e+03
2.066354e+03,4.641216e+03
2.077925e+03,4.634533e+03
2.089496e+03,4.583299e+03
2.101066e+03,4.568402e+03
2.112637e+03,4.520245e+03
2.124208e+03,4.483792e+03
2.135779e+03,4.454682e+03
2.147350e+03,4.379852e+03
2.158920e+03,4.345068e+03
2.170491e+03,4.338083e+03
2.182062e+03,4.253803e+03
2.193633e+03,4.238826e+03
2.205204e+03,4.241857e+03
2.216774e+03,4.159169e+03
2.228345e+03,4.091397e+03
2.239916e+03,4.050644e+03
2.251487e+03,4.032040e+03
2.263058e+03,3.990924e+03
2.274628e+03,3.934668e+03
2.286199e+03,3.879441e+03
2.297770e+03,3.887064e+03
2.309341e+03,3.833331e+03
2.320912e+03,3.791354e+03
2.332482e+03,3.776500e+03
2.344053e+03,3.736683e+03
2.355624e+03,3.688167e+03
2.367195e+03,3.629900e+03
2.378766e+03,3.608998e+03
2.390336e+03,3.585257e+03
2.401907e+03,3.567372e+03
2.413478e+03,3.509199e+03
2.425049e+03,3.473645e+03
2.436620e+03,3.469487e+03
2.448190e+03,3.414036e+03
2.459761e+03,3.398484e+03
2.471332e+03,3.373130e+03
2.482903e+03,3.342273e+03
2.494474e+03,3.330799e+03
2.506044e+03,3.275765e+03
2.517615e+03,3.251770e+03
2.529186e+03,3.223175e+03
2.540757e+03,3.201311e+03
2.552328e+03,3.159715e+03
2.563898e+03,3.160308e+03
2.575469e+03,3.127088e+03
2.587040e+03,3.099133e+03
2.598611e+03,3.079074e+03
2.610182e+03,3.064295e+03
2.621752e+03,3.049183e+03
2.633323e+03,2.992995e+03
2.644894e+03,2.969852e+03
2.656465e+03,2.968019e+03
2.668036e+03,2.988143e+03
2.679606e+03,2.916508e+03
2.691177e+03,2.894907e+03
2.702748e+03,2.882792e+03
2.714319e+03,2.867133e+03
2.725890e+03,2.837443e+03
2.737460e+03,2.818074e+03
2.749031e+03,2.799561e+03
2.760602e+03,2.766117e+03
2.772173e+03,2.747691e+03
2.783744e+03,2.767197e+03
2.795314e+03,2.720961e+03
2.806885e+03,2.725986e+03
2.818456e+03,2.695496e+03
2.830027e+03,2.670008e+03
2.841598e+03,2.678432e+03
2.853168e+03,2.671675e+03
2.864739e+03,2.628833e+03
2.876310e+03,2.637535e+03
2.887881e+03,2.629180e+03
2.899452e+03,2.615414e+03
2.911022e+03,2.596560e+03
2.922593e+03,2.560469e+03
2.934164e+03,2.556517e+03
2.945735e+03,2.551172e+03
2.957306e+03,2.527759e+03
2.968876e+03,2.510410e+03
2.980447e+03,2.482034e+03
2.992018e+03,2.430207e+03
3.003589e+03,2.436473e+03
3.015160e+03,2.428149e+03
3.026730e+03,2.378588e+03
3.038301e+03,2.384181e+03
3.049872e+03,2.341998e+03
3.061443e+03,2.362974e+03
3.073014e+03,2.341090e+03
3.084584e+03,2.393892e+03
3.096155e+03,2.367594e+03
3.107726e+03,2.335528e+03
3.119297e+03,2.304703e+03
3.130868e+03,2.343616e+03
3.142438e+03,2.285521e+03
3.154009e+03,2.299827e+03
3.165580e+03,2.319968e+03
3.177151e+03,2.234145e+03
3.188722e+03,2.272390e+03
3.200292e+03,2.302383e+03
3.211863e+03,0.000000e+00
3.223434e+03,0.000000e+00
3.235005e+03,0.000000e+00
3.246576e+03,0.000000e+00
3.258146e+03,0.000000e+00
3.269717e+03,0.000000e+00
3.281288e+03,0.000000e+00
3.292859e+03,0.000000e+00
3.304430e+03,0.000000e+00
3.316000e+03,0.000000e+00
3.327571e+03,0.000000e+00
3.339142e+03,0.000000e+00
3.350713e+03,0.000000e+00
3.362284e+03,0.000000e+00
3.373854e+03,0.000000e+00
3.385425e+03,0.000000e+00
3.396996e+03,0.000000e+00
3.408567e+03,0.000000e+00
3.420138e+03,0.000000e+00
3.431708e+03,0.000000e+00
3.443279e+03,0.000000e+00
3.454850e+03,0.000000e+00
3.466421e+03,0.000000e+00
3.477992e+03,0.000000e+00
3.489563e+03,0.000000e+00
3.500169e+03,0.000000e+00