File: RAMAN_data/20012023_r3/blue fibre1.CSV
9.931763e+01,0.000000e+00
1.108884e+02,0.000000e+00
1.224592e+02,0.000000e+00
1.340300e+02,0.000000e+00
1.456008e+02,0.000000e+00
1.571716e+02,0.000000e+00
1.687424e+02,0.000000e+00
1.803132e+02,0.000000e+00
1.918840e+02,0.000000e+00
2.034548e+02,3.831315e+03
2.150256e+02,3.838115e+03
2.265964e+02,3.838036e+03
2.381673e+02,3.852384e+03
2.497381e+02,3.848273e+03
2.613088e+02,3.849509e+03
2.728796e+02,3.852071e+03
2.844504e+02,3.877459e+03
2.960212e+02,3.862657e+03
3.075920e+02,3.882981e+03
3.191628e+02,3.860531e+03
3.307336e+02,3.884740e+03
3.423044e+02,3.849416e+03
3.538752e+02,3.848105e+03
3.654461e+02,3.844478e+03
3.770169e+02,3.861242e+03
3.885877e+02,3.819688e+03
4.001585e+02,3.798941e+03
4.117293e+02,3.811335e+03
4.233001e+02,3.809178e+03
4.348709e+02,3.796578e+03
4.464417e+02,3.773396e+03
4.580125e+02,3.760810e+03
4.695833e+02,3.745213e+03
4.811541e+02,3.734642e+03
4.927249e+02,3.706054e+03
5.042957e+02,3.698420e+03
5.158665e+02,3.704886e+03
5.274373e+02,3.690444e+03
5.390081e+02,3.652842e+03
5.505789e+02,3.648678e+03
5.621497e+02,3.623469e+03
5.737205e+02,3.621078e+03
5.852913e+02,3.617783e+03
5.968621e+02,3.597557e+03
6.084329e+02,3.583915e+03
6.200037e+02,3.552735e+03
6.315745e+02,3.545273e+03
6.431453e+02,3.534417e+03
6.547161e+02,3.520660e+03
6.662869e+02,3.489728e+03
6.778577e+02,3.440375e+03
6.894285e+02,3.442339e+03
7.009993e+02,3.442166e+03
7.125701e+02,3.428153e+03
7.241409e+02,3.403752e+03
7.357117e+02,3.396036e+03
7.472825e+02,3.352463e+03
7.588533e+02,3.350712e+03
7.704241e+02,3.348274e+03
7.819949e+02,3.319726e+03
7.935657e+02,3.275411e+03
8.051365e+02,3.266720e+03
8.167073e+02,3.264912e+03
8.282781e+02,3.262215e+03
8.398489e+02,3.210997e+03
8.514197e+02,3.213418e+03
8.629905e+02,3.197553e+03
8.745613e+02,3.173364e+03
8.861321e+02,3.170035e+03
8.977029e+02,3.127791e+03
9.092737e+02,3.112817e+03
9.208445e+02,3.081090e+03
9.324153e+02,3.084389e+03
9.439861e+02,3.040819e+03
9.555569e+02,3.026859e+03
9.671277e+02,3.014268e+03
9.786985e+02,2.998987e+03
9.902693e+02,2.985193e+03
1.001840e+03,2.948628e+03
1.013411e+03,2.928653e+03
1.024982e+03,2.940766e+03
1.036552e+03,2.901216e+03
1.048123e+03,2.910930e+03
1.059694e+03,2.909904e+03
1.071265e+03,2.916239e+03
1.082836e+03,2.895107e+03
1.094406e+03,2.914240e+03
1.105977e+03,2.864210e+03
1.117548e+03,2.877955e+03
1.129119e+03,2.834931e+03
1.140690e+03,2.847591e+03
1.152261e+03,2.849273e+03
1.163831e+03,2.835732e+03
1.175402e+03,2.793052e+03
1.186973e+03,2.728632e+03
1.198544e+03,2.738694e+03
1.210115e+03,2.741077e+03
1.221685e+03,2.691110e+03
1.233256e+03,2.687734e+03
1.244827e+03,2.671413e+03
1.256398e+03,2.666278e+03
1.267969e+03,2.657849e+03
1.279539e+03,2.665365e+03
1.291110e+03,2.663326e+03
1.302681e+03,2.663645e+03
1.314252e+03,2.673914e+03
1.325823e+03,2.679945e+03
1.337393e+03,2.651747e+03
1.348964e+03,2.616213e+03
1.360535e+03,2.569786e+03
1.372106e+03,2.552414e+03
1.383677e+03,2.528454e+03
1.395247e+03,2.518239e+03
1.406818e+03,2.471721e+03
1.418389e+03,2.477121e+03
1.429960e+03,2.456098e+03
1.441531e+03,2.431164e+03
1.453101e+03,2.414962e+03
1.464672e+03,2.401564e+03
1.476243e+03,2.376735e+03
1.487814e+03,2.368664e+03
1.499385e+03,2.338747e+03
1.510955e+03,2.328867e+03
1.522526e+03,2.316104e+03
1.534097e+03,2.302022e+03
1.545668e+03,2.303247e+03
1.557239e+03,2.287922e+03
1.568809e+03,2.287079e+03
1.580380e+03,2.291669e+03
1.591951e+03,2.251776e+03
1.603522e+03,2.276148e+03
1.615093e+03,2.313572e+03
1.626663e+03,2.197615e+03
1.638234e+03,2.176745e+03
1.649805e+03,2.143993e+03
1.661376e+03,2.134988e+03
1.672947e+03,2.109543e+03
1.684517e+03,2.088123e+03
1.696088e+03,2.071375e+03
1.707659e+03,2.065099e+03
1.719230e+03,2.059745e+03
1.730801e+03,2.068813e+03
1.742371e+03,2.035557e+03
1.753942e+03,2.005000e+03
1.765513e+03,1.981022e+03
1.777084e+03,1.953640e+03
1.788655e+03,1.931084e+03
1.800225e+03,1.922118e+03
1.811796e+03,1.921958e+03
1.823367e+03,1.869590e+03
1.834938e+03,1.871175e+03
1.846509e+03,1.840999e+03
1.858079e+03,1.837030e+03
1.869650e+03,1.825199e+03
1.881221e+03,1.808651e+03
1.892792e+03,1.790457e+03
1.904363e+03,1.750772e+03
1.915933e+03,1.773058e+03
1.927504e+03,1.734877e+03
1.939075e+03,1.717617e+03
1.950646e+03,1.680326e+03
1.962217e+03,1.682558e+03
1.973787e+03,1.646049e+03
1.985358e+03,1.658674e+03
1.996929e+03,1.631786e+03
2.008500e+03,1.617059e+03
2.020071e+03,1.585424e+03
2.031641e+03,1.583008e+03
2.043212e+03,1.548260e+03
2.054783e+03,1.535571e+03
2.066354e+03,1.521399e+03
2.077925e+03,1.501052e+03
2.089496e+03,1.500114e+03
2.101066e+03,1.493039e+03
2.112637e+03,1.452708e+03
2.124208e+03,1.468342e+03
2.135779e+03,1.423771e+03
2.147350e+03,1.409169e+03
2.158920e+03,1.399585e+03
2.170491e+03,1.385027e+03
2.182062e+03,1.367906e+03
2.193633e+03,1.343512e+03
2.205204e+03,1.322914e+03
2.216774e+03,1.320050e+03
2.228345e+03,1.304334e+03
2.239916e+03,1.272497e+03
2.251487e+03,1.265697e+03
2.263058e+03,1.248143e+03
2.274628e+03,1.247883e+03
2.286199e+03,1.232886e+03
2.297770e+03,1.221684e+03
2.309341e+03,1.196038e+03
2.320912e+03,1.176028e+03
2.332482e+03,1.150730e+03
2.344053e+03,1.168490e+03
2.355624e+03,1.135682e+03
2.367195e+03,1.127502e+03
2.378766e+03,1.114424e+03
2.390336e+03,1.103332e+03
2.401907e+03,1.095215e+03
2.413478e+03,1.081588e+03
2.425049e+03,1.049664e+03
2.436620e+03,1.078398e+03
2.448190e+03,1.047768e+03
2.459761e+03,1.042741e+03
2.471332e+03,1.031896e+03
2.482903e+03,1.017340e+03
2.494474e+03,1.010647e+03
2.506044e+03,1.010248e+03
2.517615e+03,9.911166e+02
2.529186e+03,9.713748e+02
2.540757e+03,9.550880e+02
2.552328e+03,9.595374e+02
2.563898e+03,9.399601e+02
2.575469e+03,9.448555e+02
2.587040e+03,9.171910e+02
2.598611e+03,9.308408e+02
2.610182e+03,9.213094e+02
2.621752e+03,9.171518e+02
2.633323e+03,9.100793e+02
2.644894e+03,8.714822e+02
2.656465e+03,8.984059e+02
2.668036e+03,8.806136e+02
2.679606e+03,8.639987e+02
2.691177e+03,8.737751e+02
2.702748e+03,8.516497e+02
2.714319e+03,8.512286e+02
2.725890e+03,8.448052e+02
2.737460e+03,8.254105e+02
2.749031e+03,8.231429e+02
2.760602e+03,8.061885e+02
2.772173e+03,8.119468e+02
2.783744e+03,7.957601e+02
2.795314e+03,7.938785e+02
2.806885e+03,8.014582e+02
2.818456e+03,7.837126e+02
2.830027e+03,7.799069e+02
2.841598e+03,7.833094e+02
2.853168e+03,7.928085e+02
2.864739e+03,7.826648e+02
2.876310e+03,8.049922e+02
2.887881e+03,8.209034e+02
2.899452e+03,8.024784e+02
2.911022e+03,7.732731e+02
2.922593e+03,7.760259e+02
2.934164e+03,7.400181e+02
2.945735e+03,7.404139e+02
2.957306e+03,7.727856e+02
2.968876e+03,7.380182e+02
2.980447e+03,7.223566e+02
2.992018e+03,7.018514e+02
3.003589e+03,6.940096e+02
3.015160e+03,6.829734e+02
3.026730e+03,6.820411e+02
3.038301e+03,7.214144e+02
3.049872e+03,6.769704e+02
3.061443e+03,7.021273e+02
3.073014e+03,6.916701e+02
3.084584e+03,6.562146e+02
3.096155e+03,6.829789e+02
3.107726e+03,7.071694e+02
3.119297e+03,6.764953e+02
3.130868e+03,6.690338e+02
3.142438e+03,6.570769e+02
3.154009e+03,6.981898e+02
3.165580e+03,6.561201e+02
3.177151e+03,6.566712e+02
3.188722e+03,6.588455e+02
3.200292e+03,6.759736e+02
3.211863e+03,0.000000e+00
3.223434e+03,0.000000e+00
3.235005e+03,0.000000e+00
3.246576e+03,0.000000e+00
3.258146e+03,0.000000e+00
3.269717e+03,0.000000e+00
3.281288e+03,0.000000e+00
3.292859e+03,0.000000e+00
3.304430e+03,0.000000e+00
3.316000e+03,0.000000e+00
3.327571e+03,0.000000e+00
3.339142e+03,0.000000e+00
3.350713e+03,0.000000e+00
3.362284e+03,0.000000e+00
3.373854e+03,0.000000e+00
3.385425e+03,0.000000e+00
3.396996e+03,0.000000e+00
3.408567e+03,0.000000e+00
3.420138e+03,0.000000e+00
3.431708e+03,0.000000e+00
3.443279e+03,0.000000e+00
3.454850e+03,0.000000e+00
3.466421e+03,0.000000e+00
3.477992e+03,0.000000e+00
3.489563e+03,0.000000e+00
3.500169e+03,0.000000e+00