File: RAMAN_data/20012023_r3/blue fibre3.CSV
9.931763e+01,0.000000e+00
1.108884e+02,0.000000e+00
1.224592e+02,0.000000e+00
1.340300e+02,0.000000e+00
1.456008e+02,0.000000e+00
1.571716e+02,0.000000e+00
1.687424e+02,0.000000e+00
1.803132e+02,0.000000e+00
1.918840e+02,0.000000e+00
2.034548e+02,3.914551e+03
2.150256e+02,3.928093e+03
2.265964e+02,3.929227e+03
2.381673e+02,3.938145e+03
2.497381e+02,3.958358e+03
2.613088e+02,3.968637e+03
2.728796e+02,3.965252e+03
2.844504e+02,3.985819e+03
2.960212e+02,3.985457e+03
3.075920e+02,3.958393e+03
3.191628e+02,3.959071e+03
3.307336e+02,3.983596e+03
3.423044e+02,3.986321e+03
3.538752e+02,3.981260e+03
3.654461e+02,3.969329e+03
3.770169e+02,3.995157e+03
3.885877e+02,3.970687e+03
4.001585e+02,3.959887e+03
4.117293e+02,3.935253e+03
4.233001e+02,3.923901e+03
4.348709e+02,3.915166e+03
4.464417e+02,3.931818e+03
4.580125e+02,3.899236e+03
4.695833e+02,3.878435e+03
4.811541e+02,3.881290e+03
4.927249e+02,3.867976e+03
5.042957e+02,3.860718e+03
5.158665e+02,3.838456e+03
5.274373e+02,3.820669e+03
5.390081e+02,3.803830e+03
5.505789e+02,3.792003e+03
5.621497e+02,3.784556e+03
5.737205e+02,3.764737e+03
5.852913e+02,3.720169e+03
5.968621e+02,3.712907e+03
6.084329e+02,3.708372e+03
6.200037e+02,3.689182e+03
6.315745e+02,3.678678e+03
6.431453e+02,3.635725e+03
6.547161e+02,3.640338e+03
6.662869e+02,3.604530e+03
6.778577e+02,3.585624e+03
6.894285e+02,3.560816e+03
7.009993e+02,3.558957e+03
7.125701e+02,3.508926e+03
7.241409e+02,3.529843e+03
7.357117e+02,3.476140e+03
7.472825e+02,3.478626e+03
7.588533e+02,3.447187e+03
7.704241e+02,3.428961e+03
7.819949e+02,3.429191e+03
7.935657e+02,3.409668e+03
8.051365e+02,3.359759e+03
8.167073e+02,3.346353e+03
8.282781e+02,3.324273e+03
8.398489e+02,3.307053e+03
8.514197e+02,3.313589e+03
8.629905e+02,3.271694e+03
8.745613e+02,3.247911e+03
8.861321e+02,3.236992e+03
8.977029e+02,3.214319e+03
9.092737e+02,3.189926e+03
9.208445e+02,3.160080e+03
9.324153e+02,3.141308e+03
9.439861e+02,3.129702e+03
9.555569e+02,3.106617e+03
9.671277e+02,3.086427e+03
9.786985e+02,3.090552e+03
9.902693e+02,3.051761e+03
1.001840e+03,3.032460e+03
1.013411e+03,3.025790e+03
1.024982e+03,3.011718e+03
1.036552e+03,3.009669e+03
1.048123e+03,2.991730e+03
1.059694e+03,2.977398e+03
1.071265e+03,2.974684e+03
1.082836e+03,2.970166e+03
1.094406e+03,2.983145e+03
1.105977e+03,2.937489e+03
1.117548e+03,2.944872e+03
1.129119e+03,2.902013e+03
1.140690e+03,2.905819e+03
1.152261e+03,2.884796e+03
1.163831e+03,2.883709e+03
1.175402e+03,2.852850e+03
1.186973e+03,2.828374e+03
1.198544e+03,2.827790e+03
1.210115e+03,2.807934e+03
1.221685e+03,2.790211e+03
1.233256e+03,2.779961e+03
1.244827e+03,2.780505e+03
1.256398e+03,2.765870e+03
1.267969e+03,2.749479e+03
1.279539e+03,2.761660e+03
1.291110e+03,2.772865e+03
1.302681e+03,2.749525e+03
1.314252e+03,2.749616e+03
1.325823e+03,2.754911e+03
1.337393e+03,2.740218e+03
1.348964e+03,2.702891e+03
1.360535e+03,2.685888e+03
1.372106e+03,2.661317e+03
1.383677e+03,2.664559e+03
1.395247e+03,2.643373e+03
1.406818e+03,2.610140e+03
1.418389e+03,2.619216e+03
1.429960e+03,2.582528e+03
1.441531e+03,2.580383e+03
1.453101e+03,2.569341e+03
1.464672e+03,2.561686e+03
1.476243e+03,2.549258e+03
1.487814e+03,2.524033e+03
1.499385e+03,2.503586e+03
1.510955e+03,2.493905e+03
1.522526e+03,2.491198e+03
1.534097e+03,2.459292e+03
1.545668e+03,2.470674e+03
1.557239e+03,2.468823e+03
1.568809e+03,2.466648e+03
1.580380e+03,2.453494e+03
1.591951e+03,2.431549e+03
1.603522e+03,2.444808e+03
1.615093e+03,2.460677e+03
1.626663e+03,2.382086e+03
1.638234e+03,2.362872e+03
1.649805e+03,2.323790e+03
1.661376e+03,2.324341e+03
1.672947e+03,2.304189e+03
1.684517e+03,2.281443e+03
1.696088e+03,2.266149e+03
1.707659e+03,2.241010e+03
1.719230e+03,2.253107e+03
1.730801e+03,2.249801e+03
1.742371e+03,2.212304e+03
1.753942e+03,2.190188e+03
1.765513e+03,2.173005e+03
1.777084e+03,2.167434e+03
1.788655e+03,2.127717e+03
1.800225e+03,2.137029e+03
1.811796e+03,2.119744e+03
1.823367e+03,2.086903e+03
1.834938e+03,2.063204e+03
1.846509e+03,2.070791e+03
1.858079e+03,2.042612e+03
1.869650e+03,2.023307e+03
1.881221e+03,1.998102e+03
1.892792e+03,1.984188e+03
1.904363e+03,1.971539e+03
1.915933e+03,1.966728e+03
1.927504e+03,1.929021e+03
1.939075e+03,1.916318e+03
1.950646e+03,1.900712e+03
1.962217e+03,1.871358e+03
1.973787e+03,1.875231e+03
1.985358e+03,1.853625e+03
1.996929e+03,1.832753e+03
2.008500e+03,1.818223e+03
2.020071e+03,1.785401e+03
2.031641e+03,1.793259e+03
2.043212e+03,1.755103e+03
2.054783e+03,1.739325e+03
2.066354e+03,1.712613e+03
2.077925e+03,1.722545e+03
2.089496e+03,1.707762e+03
2.101066e+03,1.676739e+03
2.112637e+03,1.652075e+03
2.124208e+03,1.652356e+03
2.135779e+03,1.627414e+03
2.147350e+03,1.627393e+03
2.158920e+03,1.600577e+03
2.170491e+03,1.582803e+03
2.182062e+03,1.559867e+03
2.193633e+03,1.528151e+03
2.205204e+03,1.526046e+03
2.216774e+03,1.490144e+03
2.228345e+03,1.473645e+03
2.239916e+03,1.485854e+03
2.251487e+03,1.457024e+03
2.263058e+03,1.444819e+03
2.274628e+03,1.425548e+03
2.286199e+03,1.406949e+03
2.297770e+03,1.395837e+03
2.309341e+03,1.377173e+03
2.320912e+03,1.360810e+03
2.332482e+03,1.348276e+03
2.344053e+03,1.352363e+03
2.355624e+03,1.331958e+03
2.367195e+03,1.321973e+03
2.378766e+03,1.298309e+03
2.390336e+03,1.295438e+03
2.401907e+03,1.281272e+03
2.413478e+03,1.248356e+03
2.425049e+03,1.253125e+03
2.436620e+03,1.238403e+03
2.448190e+03,1.231108e+03
2.459761e+03,1.212679e+03
2.471332e+03,1.205069e+03
2.482903e+03,1.201588e+03
2.494474e+03,1.173057e+03
2.506044e+03,1.178530e+03
2.517615e+03,1.161812e+03
2.529186e+03,1.143184e+03
2.540757e+03,1.138300e+03
2.552328e+03,1.123512e+03
2.563898e+03,1.130833e+03
2.575469e+03,1.109756e+03
2.587040e+03,1.092116e+03
2.598611e+03,1.093885e+03
2.610182e+03,1.088197e+03
2.621752e+03,1.063813e+03
2.633323e+03,1.056884e+03
2.644894e+03,1.061383e+03
2.656465e+03,1.045160e+03
2.668036e+03,1.034564e+03
2.679606e+03,1.042964e+03
2.691177e+03,1.029466e+03
2.702748e+03,1.020404e+03
2.714319e+03,1.003467e+03
2.725890e+03,9.887500e+02
2.737460e+03,9.839391e+02
2.749031e+03,9.685473e+02
2.760602e+03,9.923260e+02
2.772173e+03,9.791114e+02
2.783744e+03,9.667469e+02
2.795314e+03,9.589723e+02
2.806885e+03,9.470675e+02
2.818456e+03,9.555059e+02
2.830027e+03,9.518600e+02
2.841598e+03,9.589767e+02
2.853168e+03,9.241914e+02
2.864739e+03,9.181422e+02
2.876310e+03,9.152536e+02
2.887881e+03,9.638781e+02
2.899452e+03,9.538206e+02
2.911022e+03,9.234168e+02
2.922593e+03,9.102217e+02
2.934164e+03,9.285237e+02
2.945735e+03,9.128329e+02
2.957306e+03,9.514170e+02
2.968876e+03,9.264590e+02
2.980447e+03,8.927188e+02
2.992018e+03,8.618671e+02
3.003589e+03,8.700319e+02
3.015160e+03,8.361537e+02
3.026730e+03,8.435565e+02
3.038301e+03,8.173016e+02
3.049872e+03,8.450461e+02
3.061443e+03,8.371205e+02
3.073014e+03,8.004709e+02
3.084584e+03,8.157745e+02
3.096155e+03,8.218057e+02
3.107726e+03,8.096950e+02
3.119297e+03,8.319305e+02
3.130868e+03,8.311827e+02
3.142438e+03,8.232307e+02
3.154009e+03,8.479883e+02
3.165580e+03,8.270675e+02
3.177151e+03,8.480901e+02
3.188722e+03,8.007401e+02
3.200292e+03,8.352606e+02
3.211863e+03,0.000000e+00
3.223434e+03,0.000000e+00
3.235005e+03,0.000000e+00
3.246576e+03,0.000000e+00
3.258146e+03,0.000000e+00
3.269717e+03,0.000000e+00
3.281288e+03,0.000000e+00
3.292859e+03,0.000000e+00
3.304430e+03,0.000000e+00
3.316000e+03,0.000000e+00
3.327571e+03,0.000000e+00
3.339142e+03,0.000000e+00
3.350713e+03,0.000000e+00
3.362284e+03,0.000000e+00
3.373854e+03,0.000000e+00
3.385425e+03,0.000000e+00
3.396996e+03,0.000000e+00
3.408567e+03,0.000000e+00
3.420138e+03,0.000000e+00
3.431708e+03,0.000000e+00
3.443279e+03,0.000000e+00
3.454850e+03,0.000000e+00
3.466421e+03,0.000000e+00
3.477992e+03,0.000000e+00
3.489563e+03,0.000000e+00
3.500169e+03,0.000000e+00