File: RAMAN_data/20012023_r3/blue fibre6.CSV
9.931763e+01,0.000000e+00
1.108884e+02,0.000000e+00
1.224592e+02,0.000000e+00
1.340300e+02,0.000000e+00
1.456008e+02,0.000000e+00
1.571716e+02,0.000000e+00
1.687424e+02,0.000000e+00
1.803132e+02,0.000000e+00
1.918840e+02,0.000000e+00
2.034548e+02,4.866587e+03
2.150256e+02,4.914234e+03
2.265964e+02,4.912279e+03
2.381673e+02,4.984366e+03
2.497381e+02,5.018170e+03
2.613088e+02,5.031628e+03
2.728796e+02,5.063461e+03
2.844504e+02,5.136875e+03
2.960212e+02,5.119263e+03
3.075920e+02,5.145840e+03
3.191628e+02,5.162200e+03
3.307336e+02,5.201726e+03
3.423044e+02,5.215358e+03
3.538752e+02,5.239497e+03
3.654461e+02,5.258560e+03
3.770169e+02,5.282067e+03
3.885877e+02,5.277937e+03
4.001585e+02,5.250708e+03
4.117293e+02,5.273745e+03
4.233001e+02,5.288696e+03
4.348709e+02,5.301449e+03
4.464417e+02,5.289833e+03
4.580125e+02,5.314613e+03
4.695833e+02,5.295420e+03
4.811541e+02,5.277655e+03
4.927249e+02,5.261767e+03
5.042957e+02,5.276885e+03
5.158665e+02,5.305935e+03
5.274373e+02,5.272604e+03
5.390081e+02,5.287040e+03
5.505789e+02,5.280759e+03
5.621497e+02,5.316265e+03
5.737205e+02,5.238693e+03
5.852913e+02,5.200214e+03
5.968621e+02,5.221464e+03
6.084329e+02,5.235311e+03
6.200037e+02,5.213965e+03
6.315745e+02,5.182038e+03
6.431453e+02,5.144972e+03
6.547161e+02,5.124373e+03
6.662869e+02,5.115643e+03
6.778577e+02,5.098473e+03
6.894285e+02,5.070593e+03
7.009993e+02,5.070223e+03
7.125701e+02,5.023938e+03
7.241409e+02,5.020926e+03
7.357117e+02,4.998453e+03
7.472825e+02,4.988417e+03
7.588533e+02,4.948293e+03
7.704241e+02,4.882189e+03
7.819949e+02,4.913314e+03
7.935657e+02,4.878087e+03
8.051365e+02,4.829513e+03
8.167073e+02,4.795241e+03
8.282781e+02,4.779866e+03
8.398489e+02,4.770306e+03
8.514197e+02,4.726250e+03
8.629905e+02,4.704643e+03
8.745613e+02,4.674570e+03
8.861321e+02,4.669521e+03
8.977029e+02,4.639256e+03
9.092737e+02,4.584670e+03
9.208445e+02,4.540948e+03
9.324153e+02,4.538814e+03
9.439861e+02,4.503010e+03
9.555569e+02,4.464226e+03
9.671277e+02,4.464086e+03
9.786985e+02,4.400582e+03
9.902693e+02,4.377963e+03
1.001840e+03,4.342129e+03
1.013411e+03,4.305743e+03
1.024982e+03,4.288781e+03
1.036552e+03,4.276548e+03
1.048123e+03,4.244137e+03
1.059694e+03,4.227795e+03
1.071265e+03,4.213521e+03
1.082836e+03,4.192817e+03
1.094406e+03,4.186481e+03
1.105977e+03,4.141542e+03
1.117548e+03,4.127273e+03
1.129119e+03,4.079284e+03
1.140690e+03,4.033227e+03
1.152261e+03,4.031772e+03
1.163831e+03,4.000823e+03
1.175402e+03,3.944619e+03
1.186973e+03,3.906560e+03
1.198544e+03,3.910000e+03
1.210115e+03,3.872917e+03
1.221685e+03,3.860365e+03
1.233256e+03,3.821215e+03
1.244827e+03,3.798285e+03
1.256398e+03,3.785323e+03
1.267969e+03,3.766954e+03
1.279539e+03,3.733110e+03
1.291110e+03,3.707050e+03
1.302681e+03,3.688500e+03
1.314252e+03,3.677676e+03
1.325823e+03,3.655154e+03
1.337393e+03,3.644864e+03
1.348964e+03,3.633893e+03
1.360535e+03,3.589117e+03
1.372106e+03,3.596289e+03
1.383677e+03,3.568148e+03
1.395247e+03,3.522536e+03
1.406818e+03,3.495601e+03
1.418389e+03,3.486858e+03
1.429960e+03,3.465022e+03
1.441531e+03,3.434223e+03
1.453101e+03,3.424035e+03
1.464672e+03,3.423447e+03
1.476243e+03,3.397574e+03
1.487814e+03,3.367676e+03
1.499385e+03,3.328472e+03
1.510955e+03,3.335165e+03
1.522526e+03,3.302350e+03
1.534097e+03,3.271292e+03
1.545668e+03,3.264204e+03
1.557239e+03,3.253460e+03
1.568809e+03,3.260610e+03
1.580380e+03,3.225140e+03
1.591951e+03,3.213350e+03
1.603522e+03,3.195434e+03
1.615093e+03,3.163901e+03
1.626663e+03,3.135758e+03
1.638234e+03,3.124061e+03
1.649805e+03,3.096404e+03
1.661376e+03,3.076609e+03
1.672947e+03,3.049241e+03
1.684517e+03,3.011267e+03
1.696088e+03,3.011540e+03
1.707659e+03,2.996255e+03
1.719230e+03,2.959296e+03
1.730801e+03,2.941359e+03
1.742371e+03,2.926993e+03
1.753942e+03,2.908790e+03
1.765513e+03,2.905138e+03
1.777084e+03,2.866281e+03
1.788655e+03,2.853564e+03
1.800225e+03,2.797352e+03
1.811796e+03,2.792942e+03
1.823367e+03,2.796167e+03
1.834938e+03,2.776502e+03
1.846509e+03,2.745754e+03
1.858079e+03,2.719970e+03
1.869650e+03,2.697135e+03
1.881221e+03,2.676422e+03
1.892792e+03,2.647516e+03
1.904363e+03,2.634132e+03
1.915933e+03,2.611683e+03
1.927504e+03,2.583928e+03
1.939075e+03,2.535924e+03
1.950646e+03,2.539884e+03
1.962217e+03,2.526220e+03
1.973787e+03,2.498126e+03
1.985358e+03,2.467040e+03
1.996929e+03,2.465191e+03
2.008500e+03,2.413217e+03
2.020071e+03,2.407197e+03
2.031641e+03,2.391290e+03
2.043212e+03,2.344331e+03
2.054783e+03,2.330743e+03
2.066354e+03,2.309886e+03
2.077925e+03,2.285101e+03
2.089496e+03,2.249862e+03
2.101066e+03,2.241319e+03
2.112637e+03,2.211614e+03
2.124208e+03,2.203351e+03
2.135779e+03,2.144510e+03
2.147350e+03,2.113898e+03
2.158920e+03,2.117584e+03
2.170491e+03,2.098752e+03
2.182062e+03,2.074708e+03
2.193633e+03,2.055799e+03
2.205204e+03,2.042761e+03
2.216774e+03,2.018820e+03
2.228345e+03,1.968985e+03
2.239916e+03,1.971032e+03
2.251487e+03,1.945632e+03
2.263058e+03,1.923817e+03
2.274628e+03,1.891592e+03
2.286199e+03,1.884716e+03
2.297770e+03,1.848328e+03
2.309341e+03,1.833203e+03
2.320912e+03,1.815667e+03
2.332482e+03,1.816410e+03
2.344053e+03,1.774780e+03
2.355624e+03,1.774718e+03
2.367195e+03,1.729029e+03
2.378766e+03,1.734373e+03
2.390336e+03,1.702615e+03
2.401907e+03,1.687047e+03
2.413478e+03,1.657412e+03
2.425049e+03,1.662161e+03
2.436620e+03,1.633607e+03
2.448190e+03,1.615416e+03
2.459761e+03,1.590655e+03
2.471332e+03,1.587622e+03
2.482903e+03,1.575270e+03
2.494474e+03,1.524663e+03
2.506044e+03,1.544281e+03
2.517615e+03,1.511483e+03
2.529186e+03,1.518591e+03
2.540757e+03,1.493250e+03
2.552328e+03,1.478563e+03
2.563898e+03,1.465149e+03
2.575469e+03,1.483295e+03
2.587040e+03,1.448031e+03
2.598611e+03,1.424537e+03
2.610182e+03,1.418692e+03
2.621752e+03,1.407595e+03
2.633323e+03,1.375411e+03
2.644894e+03,1.389562e+03
2.656465e+03,1.371442e+03
2.668036e+03,1.352612e+03
2.679606e+03,1.345866e+03
2.691177e+03,1.343007e+03
2.702748e+03,1.315388e+03
2.714319e+03,1.317344e+03
2.725890e+03,1.282704e+03
2.737460e+03,1.282498e+03
2.749031e+03,1.292236e+03
2.760602e+03,1.253611e+03
2.772173e+03,1.270817e+03
2.783744e+03,1.244599e+03
2.795314e+03,1.221189e+03
2.806885e+03,1.236565e+03
2.818456e+03,1.228097e+03
2.830027e+03,1.230037e+03
2.841598e+03,1.196134e+03
2.853168e+03,1.209695e+03
2.864739e+03,1.208114e+03
2.876310e+03,1.183601e+03
2.887881e+03,1.198744e+03
2.899452e+03,1.220181e+03
2.911022e+03,1.206981e+03
2.922593e+03,1.178976e+03
2.934164e+03,1.159162e+03
2.945735e+03,1.167991e+03
2.957306e+03,1.168040e+03
2.968876e+03,1.131921e+03
2.980447e+03,1.122820e+03
2.992018e+03,1.092625e+03
3.003589e+03,1.096531e+03
3.015160e+03,1.088376e+03
3.026730e+03,1.092066e+03
3.038301e+03,1.080359e+03
3.049872e+03,1.050518e+03
3.061443e+03,1.072649e+03
3.073014e+03,1.030866e+03
3.084584e+03,1.043527e+03
3.096155e+03,1.061576e+03
3.107726e+03,1.031901e+03
3.119297e+03,1.057061e+03
3.130868e+03,1.012906e+03
3.142438e+03,1.044935e+03
3.154009e+03,1.034587e+03
3.165580e+03,1.024367e+03
3.177151e+03,1.018735e+03
3.188722e+03,9.876568e+02
3.200292e+03,1.032882e+03
3.211863e+03,0.000000e+00
3.223434e+03,0.000000e+00
3.235005e+03,0.000000e+00
3.246576e+03,0.000000e+00
3.258146e+03,0.000000e+00
3.269717e+03,0.000000e+00
3.281288e+03,0.000000e+00
3.292859e+03,0.000000e+00
3.304430e+03,0.000000e+00
3.316000e+03,0.000000e+00
3.327571e+03,0.000000e+00
3.339142e+03,0.000000e+00
3.350713e+03,0.000000e+00
3.362284e+03,0.000000e+00
3.373854e+03,0.000000e+00
3.385425e+03,0.000000e+00
3.396996e+03,0.000000e+00
3.408567e+03,0.000000e+00
3.420138e+03,0.000000e+00
3.431708e+03,0.000000e+00
3.443279e+03,0.000000e+00
3.454850e+03,0.000000e+00
3.466421e+03,0.000000e+00
3.477992e+03,0.000000e+00
3.489563e+03,0.000000e+00
3.500169e+03,0.000000e+00