File: RAMAN_data/20012023_r3/blue fibre10.CSV
9.931763e+01,0.000000e+00
1.108884e+02,0.000000e+00
1.224592e+02,0.000000e+00
1.340300e+02,0.000000e+00
1.456008e+02,0.000000e+00
1.571716e+02,0.000000e+00
1.687424e+02,0.000000e+00
1.803132e+02,0.000000e+00
1.918840e+02,0.000000e+00
2.034548e+02,8.404805e+03
2.150256e+02,8.442392e+03
2.265964e+02,8.574880e+03
2.381673e+02,8.719977e+03
2.497381e+02,8.871385e+03
2.613088e+02,8.956536e+03
2.728796e+02,9.106506e+03
2.844504e+02,9.274946e+03
2.960212e+02,9.245591e+03
3.075920e+02,9.313475e+03
3.191628e+02,9.379510e+03
3.307336e+02,9.430340e+03
3.423044e+02,9.537510e+03
3.538752e+02,9.579026e+03
3.654461e+02,9.631161e+03
3.770169e+02,9.760592e+03
3.885877e+02,9.797479e+03
4.001585e+02,9.789864e+03
4.117293e+02,9.864382e+03
4.233001e+02,9.922103e+03
4.348709e+02,9.959714e+03
4.464417e+02,9.974960e+03
4.580125e+02,1.001504e+04
4.695833e+02,1.005389e+04
4.811541e+02,1.002852e+04
4.927249e+02,1.004031e+04
5.042957e+02,1.010615e+04
5.158665e+02,1.013080e+04
5.274373e+02,1.015547e+04
5.390081e+02,1.020260e+04
5.505789e+02,1.026365e+04
5.621497e+02,1.035050e+04
5.737205e+02,1.019170e+04
5.852913e+02,1.017706e+04
5.968621e+02,1.018615e+04
6.084329e+02,1.023877e+04
6.200037e+02,1.016144e+04
6.315745e+02,1.010966e+04
6.431453e+02,1.007156e+04
6.547161e+02,1.005364e+04
6.662869e+02,1.001380e+04
6.778577e+02,9.996474e+03
6.894285e+02,9.959978e+03
7.009993e+02,9.913562e+03
7.125701e+02,9.872844e+03
7.241409e+02,9.823066e+03
7.357117e+02,9.764335e+03
7.472825e+02,9.725034e+03
7.588533e+02,9.722926e+03
7.704241e+02,9.628821e+03
7.819949e+02,9.628072e+03
7.935657e+02,9.638980e+03
8.051365e+02,9.506216e+03
8.167073e+02,9.414349e+03
8.282781e+02,9.432247e+03
8.398489e+02,9.351129e+03
8.514197e+02,9.295239e+03
8.629905e+02,9.231427e+03
8.745613e+02,9.169080e+03
8.861321e+02,9.130691e+03
8.977029e+02,9.036209e+03
9.092737e+02,8.970822e+03
9.208445e+02,8.889547e+03
9.324153e+02,8.848395e+03
9.439861e+02,8.773041e+03
9.555569e+02,8.646521e+03
9.671277e+02,8.605613e+03
9.786985e+02,8.557713e+03
9.902693e+02,8.459627e+03
1.001840e+03,8.413751e+03
1.013411e+03,8.354664e+03
1.024982e+03,8.301056e+03
1.036552e+03,8.213052e+03
1.048123e+03,8.169411e+03
1.059694e+03,8.094994e+03
1.071265e+03,8.087183e+03
1.082836e+03,8.082724e+03
1.094406e+03,7.926654e+03
1.105977e+03,7.889531e+03
1.117548e+03,7.824275e+03
1.129119e+03,7.750899e+03
1.140690e+03,7.680207e+03
1.152261e+03,7.639227e+03
1.163831e+03,7.572011e+03
1.175402e+03,7.482526e+03
1.186973e+03,7.465848e+03
1.198544e+03,7.450252e+03
1.210115e+03,7.343531e+03
1.221685e+03,7.307189e+03
1.233256e+03,7.229268e+03
1.244827e+03,7.191333e+03
1.256398e+03,7.116554e+03
1.267969e+03,7.037566e+03
1.279539e+03,6.970591e+03
1.291110e+03,6.946325e+03
1.302681e+03,6.882854e+03
1.314252e+03,6.852333e+03
1.325823e+03,6.802095e+03
1.337393e+03,6.790889e+03
1.348964e+03,6.720739e+03
1.360535e+03,6.645263e+03
1.372106e+03,6.620030e+03
1.383677e+03,6.573950e+03
1.395247e+03,6.508966e+03
1.406818e+03,6.441193e+03
1.418389e+03,6.416897e+03
1.429960e+03,6.372542e+03
1.441531e+03,6.331399e+03
1.453101e+03,6.338663e+03
1.464672e+03,6.265690e+03
1.476243e+03,6.214439e+03
1.487814e+03,6.166778e+03
1.499385e+03,6.129478e+03
1.510955e+03,6.114560e+03
1.522526e+03,6.059671e+03
1.534097e+03,6.001170e+03
1.545668e+03,5.962391e+03
1.557239e+03,5.923451e+03
1.568809e+03,6.046874e+03
1.580380e+03,6.012162e+03
1.591951e+03,5.827368e+03
1.603522e+03,5.761498e+03
1.615093e+03,5.745880e+03
1.626663e+03,5.713324e+03
1.638234e+03,5.614045e+03
1.649805e+03,5.543248e+03
1.661376e+03,5.521466e+03
1.672947e+03,5.487425e+03
1.684517e+03,5.459100e+03
1.696088e+03,5.388314e+03
1.707659e+03,5.325705e+03
1.719230e+03,5.291896e+03
1.730801e+03,5.255961e+03
1.742371e+03,5.214720e+03
1.753942e+03,5.202967e+03
1.765513e+03,5.146364e+03
1.777084e+03,5.087483e+03
1.788655e+03,5.026915e+03
1.800225e+03,4.993673e+03
1.811796e+03,4.936033e+03
1.823367e+03,4.911177e+03
1.834938e+03,4.849573e+03
1.846509e+03,4.814858e+03
1.858079e+03,4.768889e+03
1.869650e+03,4.734748e+03
1.881221e+03,4.700479e+03
1.892792e+03,4.628447e+03
1.904363e+03,4.621933e+03
1.915933e+03,4.533955e+03
1.927504e+03,4.504186e+03
1.939075e+03,4.486977e+03
1.950646e+03,4.404071e+03
1.962217e+03,4.391611e+03
1.973787e+03,4.342197e+03
1.985358e+03,4.276256e+03
1.996929e+03,4.261140e+03
2.008500e+03,4.167353e+03
2.020071e+03,4.168643e+03
2.031641e+03,4.088427e+03
2.043212e+03,4.034672e+03
2.054783e+03,4.015564e+03
2.066354e+03,3.994899e+03
2.077925e+03,3.954910e+03
2.089496e+03,3.884962e+03
2.101066e+03,3.843537e+03
2.112637e+03,3.812468e+03
2.124208e+03,3.770347e+03
2.135779e+03,3.703064e+03
2.147350e+03,3.621212e+03
2.158920e+03,3.607664e+03
2.170491e+03,3.594460e+03
2.182062e+03,3.547987e+03
2.193633e+03,3.470331e+03
2.205204e+03,3.466214e+03
2.216774e+03,3.426662e+03
2.228345e+03,3.342382e+03
2.239916e+03,3.308871e+03
2.251487e+03,3.266132e+03
2.263058e+03,3.251741e+03
2.274628e+03,3.203062e+03
2.286199e+03,3.147433e+03
2.297770e+03,3.125962e+03
2.309341e+03,3.073469e+03
2.320912e+03,3.029810e+03
2.332482e+03,3.000442e+03
2.344053e+03,2.976925e+03
2.355624e+03,2.957753e+03
2.367195e+03,2.882823e+03
2.378766e+03,2.858946e+03
2.390336e+03,2.835420e+03
2.401907e+03,2.802953e+03
2.413478e+03,2.750622e+03
2.425049e+03,2.730546e+03
2.436620e+03,2.708202e+03
2.448190e+03,2.642562e+03
2.459761e+03,2.627940e+03
2.471332e+03,2.579851e+03
2.482903e+03,2.574356e+03
2.494474e+03,2.531076e+03
2.506044e+03,2.511748e+03
2.517615e+03,2.463272e+03
2.529186e+03,2.469097e+03
2.540757e+03,2.404210e+03
2.552328e+03,2.387373e+03
2.563898e+03,2.377452e+03
2.575469e+03,2.356933e+03
2.587040e+03,2.308593e+03
2.598611e+03,2.265646e+03
2.610182e+03,2.254622e+03
2.621752e+03,2.241983e+03
2.633323e+03,2.207333e+03
2.644894e+03,2.197779e+03
2.656465e+03,2.169758e+03
2.668036e+03,2.148777e+03
2.679606e+03,2.128142e+03
2.691177e+03,2.114365e+03
2.702748e+03,2.086742e+03
2.714319e+03,2.079561e+03
2.725890e+03,2.036001e+03
2.737460e+03,2.007995e+03
2.749031e+03,2.003118e+03
2.760602e+03,1.991498e+03
2.772173e+03,1.979418e+03
2.783744e+03,1.924882e+03
2.795314e+03,1.927587e+03
2.806885e+03,1.913713e+03
2.818456e+03,1.913948e+03
2.830027e+03,1.850859e+03
2.841598e+03,1.870053e+03
2.853168e+03,1.848022e+03
2.864739e+03,1.833432e+03
2.876310e+03,1.822728e+03
2.887881e+03,1.825863e+03
2.899452e+03,1.812844e+03
2.911022e+03,1.778874e+03
2.922593e+03,1.746744e+03
2.934164e+03,1.767091e+03
2.945735e+03,1.765391e+03
2.957306e+03,1.735010e+03
2.968876e+03,1.719378e+03
2.980447e+03,1.678430e+03
2.992018e+03,1.681766e+03
3.003589e+03,1.673456e+03
3.015160e+03,1.612578e+03
3.026730e+03,1.622717e+03
3.038301e+03,1.647246e+03
3.049872e+03,1.609576e+03
3.061443e+03,1.634404e+03
3.073014e+03,1.613001e+03
3.084584e+03,1.595963e+03
3.096155e+03,1.583100e+03
3.107726e+03,1.582658e+03
3.119297e+03,1.582656e+03
3.130868e+03,1.572668e+03
3.142438e+03,1.583878e+03
3.154009e+03,1.589946e+03
3.165580e+03,1.587474e+03
3.177151e+03,1.572729e+03
3.188722e+03,1.532721e+03
3.200292e+03,1.596934e+03
3.211863e+03,0.000000e+00
3.223434e+03,0.000000e+00
3.235005e+03,0.000000e+00
3.246576e+03,0.000000e+00
3.258146e+03,0.000000e+00
3.269717e+03,0.000000e+00
3.281288e+03,0.000000e+00
3.292859e+03,0.000000e+00
3.304430e+03,0.000000e+00
3.316000e+03,0.000000e+00
3.327571e+03,0.000000e+00
3.339142e+03,0.000000e+00
3.350713e+03,0.000000e+00
3.362284e+03,0.000000e+00
3.373854e+03,0.000000e+00
3.385425e+03,0.000000e+00
3.396996e+03,0.000000e+00
3.408567e+03,0.000000e+00
3.420138e+03,0.000000e+00
3.431708e+03,0.000000e+00
3.443279e+03,0.000000e+00
3.454850e+03,0.000000e+00
3.466421e+03,0.000000e+00
3.477992e+03,0.000000e+00
3.489563e+03,0.000000e+00
3.500169e+03,0.000000e+00