File: RAMAN_data/20012023_r3/red fibre2.CSV
9.931763e+01,0.000000e+00
1.108884e+02,0.000000e+00
1.224592e+02,0.000000e+00
1.340300e+02,0.000000e+00
1.456008e+02,0.000000e+00
1.571716e+02,0.000000e+00
1.687424e+02,0.000000e+00
1.803132e+02,0.000000e+00
1.918840e+02,0.000000e+00
2.034548e+02,2.292547e+03
2.150256e+02,2.285737e+03
2.265964e+02,2.284073e+03
2.381673e+02,2.288258e+03
2.497381e+02,2.292280e+03
2.613088e+02,2.299171e+03
2.728796e+02,2.294333e+03
2.844504e+02,2.303504e+03
2.960212e+02,2.307218e+03
3.075920e+02,2.300621e+03
3.191628e+02,2.296813e+03
3.307336e+02,2.313643e+03
3.423044e+02,2.295726e+03
3.538752e+02,2.295052e+03
3.654461e+02,2.290319e+03
3.770169e+02,2.318661e+03
3.885877e+02,2.292704e+03
4.001585e+02,2.278078e+03
4.117293e+02,2.284014e+03
4.233001e+02,2.263941e+03
4.348709e+02,2.273372e+03
4.464417e+02,2.253065e+03
4.580125e+02,2.255963e+03
4.695833e+02,2.243223e+03
4.811541e+02,2.224978e+03
4.927249e+02,2.230049e+03
5.042957e+02,2.220743e+03
5.158665e+02,2.221004e+03
5.274373e+02,2.190841e+03
5.390081e+02,2.189556e+03
5.505789e+02,2.163766e+03
5.621497e+02,2.181813e+03
5.737205e+02,2.159852e+03
5.852913e+02,2.159837e+03
5.968621e+02,2.141482e+03
6.084329e+02,2.140947e+03
6.200037e+02,2.136995e+03
6.315745e+02,2.121779e+03
6.431453e+02,2.109431e+03
6.547161e+02,2.102454e+03
6.662869e+02,2.072565e+03
6.778577e+02,2.065624e+03
6.894285e+02,2.060362e+03
7.009993e+02,2.046032e+03
7.125701e+02,2.045850e+03
7.241409e+02,2.021760e+03
7.357117e+02,2.013229e+03
7.472825e+02,2.016750e+03
7.588533e+02,2.000157e+03
7.704241e+02,1.978514e+03
7.819949e+02,1.965755e+03
7.935657e+02,1.949654e+03
8.051365e+02,1.946882e+03
8.167073e+02,1.938863e+03
8.282781e+02,1.922140e+03
8.398489e+02,1.920406e+03
8.514197e+02,1.893142e+03
8.629905e+02,1.894653e+03
8.745613e+02,1.866854e+03
8.861321e+02,1.887454e+03
8.977029e+02,1.866008e+03
9.092737e+02,1.836716e+03
9.208445e+02,1.844487e+03
9.324153e+02,1.805258e+03
9.439861e+02,1.805062e+03
9.555569e+02,1.790163e+03
9.671277e+02,1.796470e+03
9.786985e+02,1.781036e+03
9.902693e+02,1.775289e+03
1.001840e+03,1.746482e+03
1.013411e+03,1.740292e+03
1.024982e+03,1.746458e+03
1.036552e+03,1.729402e+03
1.048123e+03,1.724829e+03
1.059694e+03,1.713284e+03
1.071265e+03,1.698763e+03
1.082836e+03,1.705426e+03
1.094406e+03,1.728196e+03
1.105977e+03,1.697355e+03
1.117548e+03,1.683708e+03
1.129119e+03,1.670767e+03
1.140690e+03,1.653797e+03
1.152261e+03,1.651439e+03
1.163831e+03,1.642122e+03
1.175402e+03,1.624110e+03
1.186973e+03,1.607619e+03
1.198544e+03,1.615078e+03
1.210115e+03,1.615380e+03
1.221685e+03,1.599065e+03
1.233256e+03,1.580749e+03
1.244827e+03,1.579883e+03
1.256398e+03,1.570537e+03
1.267969e+03,1.565119e+03
1.279539e+03,1.575438e+03
1.291110e+03,1.563335e+03
1.302681e+03,1.537366e+03
1.314252e+03,1.537487e+03
1.325823e+03,1.536346e+03
1.337393e+03,1.536378e+03
1.348964e+03,1.520310e+03
1.360535e+03,1.514637e+03
1.372106e+03,1.510978e+03
1.383677e+03,1.519003e+03
1.395247e+03,1.496053e+03
1.406818e+03,1.503768e+03
1.418389e+03,1.469380e+03
1.429960e+03,1.468793e+03
1.441531e+03,1.452801e+03
1.453101e+03,1.440924e+03
1.464672e+03,1.450150e+03
1.476243e+03,1.441587e+03
1.487814e+03,1.421463e+03
1.499385e+03,1.405204e+03
1.510955e+03,1.415199e+03
1.522526e+03,1.401018e+03
1.534097e+03,1.386540e+03
1.545668e+03,1.383484e+03
1.557239e+03,1.392372e+03
1.568809e+03,1.380467e+03
1.580380e+03,1.380870e+03
1.591951e+03,1.357818e+03
1.603522e+03,1.352862e+03
1.615093e+03,1.355803e+03
1.626663e+03,1.332746e+03
1.638234e+03,1.320764e+03
1.649805e+03,1.307304e+03
1.661376e+03,1.302912e+03
1.672947e+03,1.288399e+03
1.684517e+03,1.275762e+03
1.696088e+03,1.276552e+03
1.707659e+03,1.261875e+03
1.719230e+03,1.249689e+03
1.730801e+03,1.243791e+03
1.742371e+03,1.240446e+03
1.753942e+03,1.249287e+03
1.765513e+03,1.217096e+03
1.777084e+03,1.215111e+03
1.788655e+03,1.205842e+03
1.800225e+03,1.194791e+03
1.811796e+03,1.197265e+03
1.823367e+03,1.168859e+03
1.834938e+03,1.170231e+03
1.846509e+03,1.165994e+03
1.858079e+03,1.152008e+03
1.869650e+03,1.144009e+03
1.881221e+03,1.138188e+03
1.892792e+03,1.127043e+03
1.904363e+03,1.103796e+03
1.915933e+03,1.096469e+03
1.927504e+03,1.096003e+03
1.939075e+03,1.069297e+03
1.950646e+03,1.067107e+03
1.962217e+03,1.064034e+03
1.973787e+03,1.055558e+03
1.985358e+03,1.043424e+03
1.996929e+03,1.031337e+03
2.008500e+03,1.013572e+03
2.020071e+03,1.009164e+03
2.031641e+03,1.006212e+03
2.043212e+03,9.842650e+02
2.054783e+03,9.803156e+02
2.066354e+03,9.650292e+02
2.077925e+03,9.694578e+02
2.089496e+03,9.481087e+02
2.101066e+03,9.355247e+02
2.112637e+03,9.307655e+02
2.124208e+03,9.130063e+02
2.135779e+03,9.328990e+02
2.147350e+03,8.947763e+02
2.158920e+03,8.783311e+02
2.170491e+03,8.857203e+02
2.182062e+03,8.748414e+02
2.193633e+03,8.629337e+02
2.205204e+03,8.515226e+02
2.216774e+03,8.418915e+02
2.228345e+03,8.344684e+02
2.239916e+03,8.277646e+02
2.251487e+03,8.248533e+02
2.263058e+03,8.082982e+02
2.274628e+03,8.092486e+02
2.286199e+03,7.864051e+02
2.297770e+03,7.970173e+02
2.309341e+03,7.829474e+02
2.320912e+03,7.639572e+02
2.332482e+03,7.552413e+02
2.344053e+03,7.467081e+02
2.355624e+03,7.527003e+02
2.367195e+03,7.437711e+02
2.378766e+03,7.274276e+02
2.390336e+03,7.184525e+02
2.401907e+03,7.236599e+02
2.413478e+03,7.049294e+02
2.425049e+03,7.020213e+02
2.436620e+03,6.982629e+02
2.448190e+03,6.926765e+02
2.459761e+03,6.805767e+02
2.471332e+03,6.656453e+02
2.482903e+03,6.652882e+02
2.494474e+03,6.629208e+02
2.506044e+03,6.517039e+02
2.517615e+03,6.547698e+02
2.529186e+03,6.412259e+02
2.540757e+03,6.353430e+02
2.552328e+03,6.412405e+02
2.563898e+03,6.326814e+02
2.575469e+03,6.420285e+02
2.587040e+03,6.225086e+02
2.598611e+03,6.056010e+02
2.610182e+03,6.060489e+02
2.621752e+03,5.870989e+02
2.633323e+03,5.954036e+02
2.644894e+03,5.926050e+02
2.656465e+03,5.988685e+02
2.668036e+03,5.852289e+02
2.679606e+03,5.819916e+02
2.691177e+03,5.853358e+02
2.702748e+03,5.711429e+02
2.714319e+03,5.644415e+02
2.725890e+03,5.733143e+02
2.737460e+03,5.619616e+02
2.749031e+03,5.604978e+02
2.760602e+03,5.484635e+02
2.772173e+03,5.582774e+02
2.783744e+03,5.408549e+02
2.795314e+03,5.367511e+02
2.806885e+03,5.303339e+02
2.818456e+03,5.387168e+02
2.830027e+03,5.284451e+02
2.841598e+03,5.342346e+02
2.853168e+03,5.521377e+02
2.864739e+03,5.271147e+02
2.876310e+03,5.484203e+02
2.887881e+03,5.636872e+02
2.899452e+03,5.616166e+02
2.911022e+03,5.394595e+02
2.922593e+03,5.175392e+02
2.934164e+03,5.316610e+02
2.945735e+03,5.225280e+02
2.957306e+03,5.742170e+02
2.968876e+03,5.178448e+02
2.980447e+03,4.978159e+02
2.992018e+03,4.945854e+02
3.003589e+03,4.861240e+02
3.015160e+03,4.739466e+02
3.026730e+03,4.901734e+02
3.038301e+03,4.728755e+02
3.049872e+03,4.860712e+02
3.061443e+03,4.801277e+02
3.073014e+03,4.765262e+02
3.084584e+03,4.655076e+02
3.096155e+03,4.797524e+02
3.107726e+03,4.491455e+02
3.119297e+03,4.694785e+02
3.130868e+03,5.065497e+02
3.142438e+03,4.678510e+02
3.154009e+03,4.978731e+02
3.165580e+03,4.627873e+02
3.177151e+03,4.632803e+02
3.188722e+03,4.690887e+02
3.200292e+03,4.964857e+02
3.211863e+03,0.000000e+00
3.223434e+03,0.000000e+00
3.235005e+03,0.000000e+00
3.246576e+03,0.000000e+00
3.258146e+03,0.000000e+00
3.269717e+03,0.000000e+00
3.281288e+03,0.000000e+00
3.292859e+03,0.000000e+00
3.304430e+03,0.000000e+00
3.316000e+03,0.000000e+00
3.327571e+03,0.000000e+00
3.339142e+03,0.000000e+00
3.350713e+03,0.000000e+00
3.362284e+03,0.000000e+00
3.373854e+03,0.000000e+00
3.385425e+03,0.000000e+00
3.396996e+03,0.000000e+00
3.408567e+03,0.000000e+00
3.420138e+03,0.000000e+00
3.431708e+03,0.000000e+00
3.443279e+03,0.000000e+00
3.454850e+03,0.000000e+00
3.466421e+03,0.000000e+00
3.477992e+03,0.000000e+00
3.489563e+03,0.000000e+00
3.500169e+03,0.000000e+00