File: RAMAN_data/20012023_r3/red fibre1.CSV
9.931763e+01,0.000000e+00
1.108884e+02,0.000000e+00
1.224592e+02,0.000000e+00
1.340300e+02,0.000000e+00
1.456008e+02,0.000000e+00
1.571716e+02,0.000000e+00
1.687424e+02,0.000000e+00
1.803132e+02,0.000000e+00
1.918840e+02,0.000000e+00
2.034548e+02,5.056644e+03
2.150256e+02,5.061903e+03
2.265964e+02,5.028435e+03
2.381673e+02,5.057413e+03
2.497381e+02,5.047766e+03
2.613088e+02,5.065916e+03
2.728796e+02,5.054358e+03
2.844504e+02,5.069099e+03
2.960212e+02,5.043167e+03
3.075920e+02,5.046937e+03
3.191628e+02,5.016621e+03
3.307336e+02,5.042919e+03
3.423044e+02,5.012298e+03
3.538752e+02,5.011906e+03
3.654461e+02,4.988539e+03
3.770169e+02,5.003655e+03
3.885877e+02,4.957563e+03
4.001585e+02,4.940657e+03
4.117293e+02,4.920436e+03
4.233001e+02,4.899437e+03
4.348709e+02,4.891301e+03
4.464417e+02,4.883808e+03
4.580125e+02,4.853033e+03
4.695833e+02,4.825386e+03
4.811541e+02,4.804583e+03
4.927249e+02,4.776019e+03
5.042957e+02,4.741307e+03
5.158665e+02,4.749688e+03
5.274373e+02,4.696212e+03
5.390081e+02,4.652281e+03
5.505789e+02,4.640640e+03
5.621497e+02,4.635290e+03
5.737205e+02,4.593882e+03
5.852913e+02,4.571745e+03
5.968621e+02,4.536919e+03
6.084329e+02,4.512936e+03
6.200037e+02,4.495034e+03
6.315745e+02,4.489790e+03
6.431453e+02,4.446226e+03
6.547161e+02,4.407099e+03
6.662869e+02,4.390148e+03
6.778577e+02,4.353265e+03
6.894285e+02,4.305975e+03
7.009993e+02,4.300110e+03
7.125701e+02,4.263847e+03
7.241409e+02,4.239529e+03
7.357117e+02,4.183815e+03
7.472825e+02,4.173821e+03
7.588533e+02,4.154833e+03
7.704241e+02,4.084293e+03
7.819949e+02,4.086025e+03
7.935657e+02,4.060375e+03
8.051365e+02,4.042094e+03
8.167073e+02,3.996647e+03
8.282781e+02,3.957222e+03
8.398489e+02,3.947657e+03
8.514197e+02,3.911196e+03
8.629905e+02,3.902460e+03
8.745613e+02,3.876912e+03
8.861321e+02,3.849584e+03
8.977029e+02,3.817798e+03
9.092737e+02,3.787318e+03
9.208445e+02,3.741866e+03
9.324153e+02,3.723126e+03
9.439861e+02,3.711472e+03
9.555569e+02,3.676680e+03
9.671277e+02,3.661666e+03
9.786985e+02,3.640485e+03
9.902693e+02,3.611559e+03
1.001840e+03,3.571712e+03
1.013411e+03,3.562989e+03
1.024982e+03,3.550081e+03
1.036552e+03,3.525983e+03
1.048123e+03,3.516400e+03
1.059694e+03,3.503897e+03
1.071265e+03,3.480292e+03
1.082836e+03,3.485668e+03
1.094406e+03,3.474457e+03
1.105977e+03,3.440242e+03
1.117548e+03,3.444853e+03
1.129119e+03,3.401118e+03
1.140690e+03,3.406507e+03
1.152261e+03,3.396537e+03
1.163831e+03,3.381531e+03
1.175402e+03,3.342243e+03
1.186973e+03,3.327740e+03
1.198544e+03,3.335548e+03
1.210115e+03,3.325988e+03
1.221685e+03,3.286249e+03
1.233256e+03,3.269620e+03
1.244827e+03,3.297943e+03
1.256398e+03,3.280677e+03
1.267969e+03,3.261363e+03
1.279539e+03,3.275530e+03
1.291110e+03,3.256765e+03
1.302681e+03,3.230832e+03
1.314252e+03,3.225769e+03
1.325823e+03,3.214356e+03
1.337393e+03,3.218353e+03
1.348964e+03,3.189060e+03
1.360535e+03,3.193617e+03
1.372106e+03,3.195840e+03
1.383677e+03,3.184508e+03
1.395247e+03,3.143603e+03
1.406818e+03,3.106124e+03
1.418389e+03,3.110944e+03
1.429960e+03,3.093142e+03
1.441531e+03,3.081555e+03
1.453101e+03,3.052426e+03
1.464672e+03,3.054331e+03
1.476243e+03,3.046484e+03
1.487814e+03,3.010780e+03
1.499385e+03,2.999211e+03
1.510955e+03,3.000747e+03
1.522526e+03,2.975436e+03
1.534097e+03,2.969035e+03
1.545668e+03,2.942722e+03
1.557239e+03,2.920670e+03
1.568809e+03,2.915336e+03
1.580380e+03,2.892886e+03
1.591951e+03,2.886317e+03
1.603522e+03,2.879758e+03
1.615093e+03,2.913170e+03
1.626663e+03,2.816814e+03
1.638234e+03,2.798918e+03
1.649805e+03,2.752470e+03
1.661376e+03,2.757428e+03
1.672947e+03,2.730853e+03
1.684517e+03,2.713909e+03
1.696088e+03,2.691191e+03
1.707659e+03,2.650730e+03
1.719230e+03,2.664640e+03
1.730801e+03,2.656366e+03
1.742371e+03,2.603132e+03
1.753942e+03,2.597194e+03
1.765513e+03,2.573445e+03
1.777084e+03,2.521421e+03
1.788655e+03,2.512563e+03
1.800225e+03,2.511208e+03
1.811796e+03,2.480933e+03
1.823367e+03,2.438923e+03
1.834938e+03,2.430719e+03
1.846509e+03,2.404408e+03
1.858079e+03,2.389695e+03
1.869650e+03,2.336554e+03
1.881221e+03,2.342361e+03
1.892792e+03,2.313033e+03
1.904363e+03,2.285941e+03
1.915933e+03,2.262240e+03
1.927504e+03,2.241884e+03
1.939075e+03,2.193488e+03
1.950646e+03,2.189126e+03
1.962217e+03,2.169265e+03
1.973787e+03,2.145958e+03
1.985358e+03,2.115336e+03
1.996929e+03,2.105528e+03
2.008500e+03,2.077188e+03
2.020071e+03,2.064291e+03
2.031641e+03,2.041048e+03
2.043212e+03,2.020776e+03
2.054783e+03,1.994969e+03
2.066354e+03,1.944215e+03
2.077925e+03,1.937963e+03
2.089496e+03,1.915025e+03
2.101066e+03,1.881604e+03
2.112637e+03,1.859668e+03
2.124208e+03,1.865077e+03
2.135779e+03,1.834963e+03
2.147350e+03,1.815080e+03
2.158920e+03,1.779376e+03
2.170491e+03,1.761217e+03
2.182062e+03,1.754592e+03
2.193633e+03,1.718287e+03
2.205204e+03,1.730207e+03
2.216774e+03,1.687595e+03
2.228345e+03,1.658681e+03
2.239916e+03,1.668112e+03
2.251487e+03,1.634393e+03
2.263058e+03,1.624805e+03
2.274628e+03,1.587914e+03
2.286199e+03,1.566547e+03
2.297770e+03,1.576958e+03
2.309341e+03,1.536472e+03
2.320912e+03,1.534377e+03
2.332482e+03,1.500713e+03
2.344053e+03,1.492372e+03
2.355624e+03,1.460596e+03
2.367195e+03,1.453754e+03
2.378766e+03,1.422428e+03
2.390336e+03,1.438393e+03
2.401907e+03,1.407892e+03
2.413478e+03,1.400931e+03
2.425049e+03,1.382500e+03
2.436620e+03,1.347643e+03
2.448190e+03,1.352934e+03
2.459761e+03,1.339781e+03
2.471332e+03,1.320137e+03
2.482903e+03,1.309982e+03
2.494474e+03,1.286382e+03
2.506044e+03,1.279480e+03
2.517615e+03,1.268781e+03
2.529186e+03,1.263390e+03
2.540757e+03,1.257163e+03
2.552328e+03,1.238658e+03
2.563898e+03,1.234561e+03
2.575469e+03,1.227631e+03
2.587040e+03,1.198370e+03
2.598611e+03,1.195983e+03
2.610182e+03,1.194549e+03
2.621752e+03,1.175645e+03
2.633323e+03,1.160044e+03
2.644894e+03,1.161398e+03
2.656465e+03,1.139573e+03
2.668036e+03,1.157553e+03
2.679606e+03,1.124479e+03
2.691177e+03,1.118816e+03
2.702748e+03,1.121143e+03
2.714319e+03,1.106276e+03
2.725890e+03,1.082662e+03
2.737460e+03,1.091973e+03
2.749031e+03,1.108260e+03
2.760602e+03,1.088573e+03
2.772173e+03,1.074610e+03
2.783744e+03,1.045268e+03
2.795314e+03,1.028731e+03
2.806885e+03,1.038270e+03
2.818456e+03,1.038051e+03
2.830027e+03,1.043073e+03
2.841598e+03,1.026147e+03
2.853168e+03,1.025753e+03
2.864739e+03,1.006186e+03
2.876310e+03,9.828224e+02
2.887881e+03,1.013637e+03
2.899452e+03,1.006573e+03
2.911022e+03,9.945174e+02
2.922593e+03,9.887719e+02
2.934164e+03,9.827045e+02
2.945735e+03,9.481992e+02
2.957306e+03,9.815716e+02
2.968876e+03,9.479187e+02
2.980447e+03,9.417667e+02
2.992018e+03,9.378654e+02
3.003589e+03,9.300677e+02
3.015160e+03,9.187662e+02
3.026730e+03,9.077037e+02
3.038301e+03,9.168326e+02
3.049872e+03,9.144369e+02
3.061443e+03,8.950061e+02
3.073014e+03,8.965869e+02
3.084584e+03,8.951212e+02
3.096155e+03,8.967354e+02
3.107726e+03,9.036469e+02
3.119297e+03,8.395917e+02
3.130868e+03,8.565761e+02
3.142438e+03,8.687051e+02
3.154009e+03,8.951898e+02
3.165580e+03,9.021116e+02
3.177151e+03,8.755527e+02
3.188722e+03,8.467304e+02
3.200292e+03,8.943204e+02
3.211863e+03,0.000000e+00
3.223434e+03,0.000000e+00
3.235005e+03,0.000000e+00
3.246576e+03,0.000000e+00
3.258146e+03,0.000000e+00
3.269717e+03,0.000000e+00
3.281288e+03,0.000000e+00
3.292859e+03,0.000000e+00
3.304430e+03,0.000000e+00
3.316000e+03,0.000000e+00
3.327571e+03,0.000000e+00
3.339142e+03,0.000000e+00
3.350713e+03,0.000000e+00
3.362284e+03,0.000000e+00
3.373854e+03,0.000000e+00
3.385425e+03,0.000000e+00
3.396996e+03,0.000000e+00
3.408567e+03,0.000000e+00
3.420138e+03,0.000000e+00
3.431708e+03,0.000000e+00
3.443279e+03,0.000000e+00
3.454850e+03,0.000000e+00
3.466421e+03,0.000000e+00
3.477992e+03,0.000000e+00
3.489563e+03,0.000000e+00
3.500169e+03,0.000000e+00