File: RAMAN_data/20012023_r1/black fibre11.CSV
1.995979e+02,5.896507e+03
2.102045e+02,5.934380e+03
2.208110e+02,5.954296e+03
2.314176e+02,5.986450e+03
2.420242e+02,5.981296e+03
2.526307e+02,6.058142e+03
2.632373e+02,6.047213e+03
2.738439e+02,6.043118e+03
2.844504e+02,6.072830e+03
2.950570e+02,6.068917e+03
3.056636e+02,6.077120e+03
3.162701e+02,6.102844e+03
3.268767e+02,6.107209e+03
3.374833e+02,6.074670e+03
3.480898e+02,6.113433e+03
3.586964e+02,6.109479e+03
3.693030e+02,6.128419e+03
3.799095e+02,6.118798e+03
3.905161e+02,6.112672e+03
4.011227e+02,6.104665e+03
4.117292e+02,6.099029e+03
4.223358e+02,6.091510e+03
4.329424e+02,6.086296e+03
4.435490e+02,6.067686e+03
4.541555e+02,6.072305e+03
4.647621e+02,6.051156e+03
4.753687e+02,6.016680e+03
4.859752e+02,6.093021e+03
4.965818e+02,6.041139e+03
5.071884e+02,5.991180e+03
5.177949e+02,5.992174e+03
5.284015e+02,5.944476e+03
5.390081e+02,5.917171e+03
5.496146e+02,5.924558e+03
5.602212e+02,5.897766e+03
5.708278e+02,5.857015e+03
5.814343e+02,5.856370e+03
5.920409e+02,5.837069e+03
6.026475e+02,5.799248e+03
6.132540e+02,5.799654e+03
6.238606e+02,5.779295e+03
6.344672e+02,5.781510e+03
6.450737e+02,5.698015e+03
6.556803e+02,5.685221e+03
6.662869e+02,5.655968e+03
6.768934e+02,5.639211e+03
6.875000e+02,5.606101e+03
6.981066e+02,5.594780e+03
7.087131e+02,5.548159e+03
7.193197e+02,5.529485e+03
7.299263e+02,5.521380e+03
7.405328e+02,5.452799e+03
7.511394e+02,5.456405e+03
7.617460e+02,5.417841e+03
7.723525e+02,5.366375e+03
7.829591e+02,5.347687e+03
7.935657e+02,5.316778e+03
8.041722e+02,5.274833e+03
8.147788e+02,5.264268e+03
8.253854e+02,5.244568e+03
8.359919e+02,5.211977e+03
8.465985e+02,5.162416e+03
8.572051e+02,5.156745e+03
8.678116e+02,5.098755e+03
8.784182e+02,5.071218e+03
8.890248e+02,5.062241e+03
8.996313e+02,5.015477e+03
9.102379e+02,4.995220e+03
9.208445e+02,4.947625e+03
9.314510e+02,4.915468e+03
9.420576e+02,4.869436e+03
9.526642e+02,4.857388e+03
9.632708e+02,4.847636e+03
9.738773e+02,4.795917e+03
9.844839e+02,4.759911e+03
9.950905e+02,4.756454e+03
1.005697e+03,4.726937e+03
1.016304e+03,4.669388e+03
1.026910e+03,4.669775e+03
1.037517e+03,4.631876e+03
1.048123e+03,4.580863e+03
1.058730e+03,4.561964e+03
1.069336e+03,4.562882e+03
1.079943e+03,4.527901e+03
1.090550e+03,4.544357e+03
1.101156e+03,4.494396e+03
1.111763e+03,4.490196e+03
1.122369e+03,4.519461e+03
1.132976e+03,4.490017e+03
1.143582e+03,4.428402e+03
1.154189e+03,4.436382e+03
1.164796e+03,4.356227e+03
1.175402e+03,4.343159e+03
1.186009e+03,4.318822e+03
1.196615e+03,4.285357e+03
1.207222e+03,4.260417e+03
1.217828e+03,4.245331e+03
1.228435e+03,4.250006e+03
1.239042e+03,4.197338e+03
1.249648e+03,4.153632e+03
1.260255e+03,4.131485e+03
1.270861e+03,4.156605e+03
1.281468e+03,4.147786e+03
1.292074e+03,4.091479e+03
1.302681e+03,4.054373e+03
1.313287e+03,4.043674e+03
1.323894e+03,4.019502e+03
1.334501e+03,4.036385e+03
1.345107e+03,3.996524e+03
1.355714e+03,3.955998e+03
1.366320e+03,3.927615e+03
1.376927e+03,3.902342e+03
1.387533e+03,3.857303e+03
1.398140e+03,3.826007e+03
1.408747e+03,3.820445e+03
1.419353e+03,3.791319e+03
1.429960e+03,3.761412e+03
1.440566e+03,3.744866e+03
1.451173e+03,3.685809e+03
1.461779e+03,3.679591e+03
1.472386e+03,3.638923e+03
1.482993e+03,3.630366e+03
1.493599e+03,3.635944e+03
1.504206e+03,3.603604e+03
1.514812e+03,3.586854e+03
1.525419e+03,3.542478e+03
1.536025e+03,3.537169e+03
1.546632e+03,3.498536e+03
1.557239e+03,3.501862e+03
1.567845e+03,3.503991e+03
1.578452e+03,3.465178e+03
1.589058e+03,3.460173e+03
1.599665e+03,3.419949e+03
1.610271e+03,3.372874e+03
1.620878e+03,3.340157e+03
1.631484e+03,3.304635e+03
1.642091e+03,3.271838e+03
1.652698e+03,3.245310e+03
1.663304e+03,3.229864e+03
1.673911e+03,3.220977e+03
1.684517e+03,3.177983e+03
1.695124e+03,3.165678e+03
1.705730e+03,3.143397e+03
1.716337e+03,3.103285e+03
1.726944e+03,3.070344e+03
1.737550e+03,3.056108e+03
1.748157e+03,3.033563e+03
1.758763e+03,3.003424e+03
1.769370e+03,3.006292e+03
1.779976e+03,2.977594e+03
1.790583e+03,2.922914e+03
1.801190e+03,2.918177e+03
1.811796e+03,2.903253e+03
1.822403e+03,2.874206e+03
1.833009e+03,2.847801e+03
1.843616e+03,2.824533e+03
1.854222e+03,2.797031e+03
1.864829e+03,2.792040e+03
1.875436e+03,2.749361e+03
1.886042e+03,2.706683e+03
1.896649e+03,2.696452e+03
1.907255e+03,2.703927e+03
1.917862e+03,2.654291e+03
1.928468e+03,2.646642e+03
1.939075e+03,2.587448e+03
1.949682e+03,2.565259e+03
1.960288e+03,2.549422e+03
1.970895e+03,2.541770e+03
1.981501e+03,2.491659e+03
1.992108e+03,2.475129e+03
2.002714e+03,2.455972e+03
2.013321e+03,2.425887e+03
2.023927e+03,2.389165e+03
2.034534e+03,2.387700e+03
2.045141e+03,2.349300e+03
2.055747e+03,2.318625e+03
2.066354e+03,2.296174e+03
2.076960e+03,2.270382e+03
2.087567e+03,2.254239e+03
2.098173e+03,2.243693e+03
2.108780e+03,2.216679e+03
2.119387e+03,2.186119e+03
2.129993e+03,2.161675e+03
2.140600e+03,2.135587e+03
2.151206e+03,2.116937e+03
2.161813e+03,2.086006e+03
2.172419e+03,2.083453e+03
2.183026e+03,2.036772e+03
2.193633e+03,2.016219e+03
2.204239e+03,2.005418e+03
2.214846e+03,1.965931e+03
2.225452e+03,1.919428e+03
2.236059e+03,1.932630e+03
2.246666e+03,1.920959e+03
2.257272e+03,1.873193e+03
2.267879e+03,1.875124e+03
2.278485e+03,1.826092e+03
2.289092e+03,1.812107e+03
2.299698e+03,1.802972e+03
2.310305e+03,1.780854e+03
2.320911e+03,1.759880e+03
2.331518e+03,1.756245e+03
2.342125e+03,1.719926e+03
2.352731e+03,1.702559e+03
2.363338e+03,1.688522e+03
2.373944e+03,1.660714e+03
2.384551e+03,1.644595e+03
2.395157e+03,1.622715e+03
2.405764e+03,1.624418e+03
2.416370e+03,1.592464e+03
2.426977e+03,1.571917e+03
2.437584e+03,1.559072e+03
2.448190e+03,1.539760e+03
2.458797e+03,1.502142e+03
2.469403e+03,1.493436e+03
2.480010e+03,1.491267e+03
2.490616e+03,1.493409e+03
2.501223e+03,1.463295e+03
2.511830e+03,1.453103e+03
2.522436e+03,1.441626e+03
2.533043e+03,1.427111e+03
2.543649e+03,1.421636e+03
2.554256e+03,1.401311e+03
2.564863e+03,1.385049e+03
2.575469e+03,1.388083e+03
2.586075e+03,1.343102e+03
2.596682e+03,1.332432e+03
2.607289e+03,1.337144e+03
2.617895e+03,1.333153e+03
2.628502e+03,1.293441e+03
2.639108e+03,1.285312e+03
2.649715e+03,1.283287e+03
2.660322e+03,1.254073e+03
2.670928e+03,1.251029e+03
2.681535e+03,1.229787e+03
2.692141e+03,1.227556e+03
2.702748e+03,1.211124e+03
2.713354e+03,1.214206e+03
2.723961e+03,1.190464e+03
2.734568e+03,1.168898e+03
2.745174e+03,1.182427e+03
2.755781e+03,1.173215e+03
2.766387e+03,1.141792e+03
2.776994e+03,1.148512e+03
2.787600e+03,1.120940e+03
2.798207e+03,1.129591e+03
2.808813e+03,1.117517e+03
2.819420e+03,1.081705e+03
2.830027e+03,1.100910e+03
2.840633e+03,1.086005e+03
2.851240e+03,1.085012e+03
2.861846e+03,1.100052e+03
2.872453e+03,1.110404e+03
2.883059e+03,1.087139e+03
2.893666e+03,1.102360e+03
2.904273e+03,1.077607e+03
2.914879e+03,1.091425e+03
2.925486e+03,1.039088e+03
2.936092e+03,1.039183e+03
2.946699e+03,1.039346e+03
2.957305e+03,1.096940e+03
2.967912e+03,1.003638e+03
2.978519e+03,1.008992e+03
2.989125e+03,9.884954e+02
2.999732e+03,9.910782e+02
3.010338e+03,9.864418e+02
3.020945e+03,9.376902e+02
3.031552e+03,9.444355e+02
3.042158e+03,9.935565e+02
3.052764e+03,9.244160e+02
3.063371e+03,9.609480e+02
3.073978e+03,9.831250e+02
3.084584e+03,9.398188e+02
3.095191e+03,9.075510e+02
3.105797e+03,9.225994e+02
3.116404e+03,9.642132e+02
3.127010e+03,9.199370e+02
3.137617e+03,9.810614e+02
3.148224e+03,9.268010e+02
3.158830e+03,9.201856e+02
3.169437e+03,9.266729e+02
3.180043e+03,9.152870e+02
3.190650e+03,9.043588e+02
3.200292e+03,9.447448e+02