File: RAMAN_data/20012023_r1/black fibre7.CSV
1.995979e+02,1.046964e+04
2.102045e+02,1.054658e+04
2.208110e+02,1.066058e+04
2.314176e+02,1.075159e+04
2.420242e+02,1.083454e+04
2.526307e+02,1.095972e+04
2.632373e+02,1.105567e+04
2.738439e+02,1.114958e+04
2.844504e+02,1.126030e+04
2.950570e+02,1.131250e+04
3.056636e+02,1.137544e+04
3.162701e+02,1.148196e+04
3.268767e+02,1.154969e+04
3.374833e+02,1.160092e+04
3.480898e+02,1.171329e+04
3.586964e+02,1.176165e+04
3.693030e+02,1.176453e+04
3.799095e+02,1.183813e+04
3.905161e+02,1.188630e+04
4.011227e+02,1.190370e+04
4.117292e+02,1.189371e+04
4.223358e+02,1.196290e+04
4.329424e+02,1.198817e+04
4.435490e+02,1.199667e+04
4.541555e+02,1.198847e+04
4.647621e+02,1.191365e+04
4.753687e+02,1.192622e+04
4.859752e+02,1.192129e+04
4.965818e+02,1.188531e+04
5.071884e+02,1.181276e+04
5.177949e+02,1.183958e+04
5.284015e+02,1.173280e+04
5.390081e+02,1.169010e+04
5.496146e+02,1.169924e+04
5.602212e+02,1.167764e+04
5.708278e+02,1.155619e+04
5.814343e+02,1.157247e+04
5.920409e+02,1.153763e+04
6.026475e+02,1.144809e+04
6.132540e+02,1.142431e+04
6.238606e+02,1.140829e+04
6.344672e+02,1.132583e+04
6.450737e+02,1.128923e+04
6.556803e+02,1.121030e+04
6.662869e+02,1.114898e+04
6.768934e+02,1.111355e+04
6.875000e+02,1.107491e+04
6.981066e+02,1.100552e+04
7.087131e+02,1.094478e+04
7.193197e+02,1.088958e+04
7.299263e+02,1.084967e+04
7.405328e+02,1.077945e+04
7.511394e+02,1.071739e+04
7.617460e+02,1.069704e+04
7.723525e+02,1.057245e+04
7.829591e+02,1.052165e+04
7.935657e+02,1.051491e+04
8.041722e+02,1.040898e+04
8.147788e+02,1.034489e+04
8.253854e+02,1.030022e+04
8.359919e+02,1.027183e+04
8.465985e+02,1.020196e+04
8.572051e+02,1.014275e+04
8.678116e+02,1.006838e+04
8.784182e+02,9.999856e+03
8.890248e+02,9.948181e+03
8.996313e+02,9.870540e+03
9.102379e+02,9.849446e+03
9.208445e+02,9.763653e+03
9.314510e+02,9.703155e+03
9.420576e+02,9.637136e+03
9.526642e+02,9.601784e+03
9.632708e+02,9.559370e+03
9.738773e+02,9.466375e+03
9.844839e+02,9.418584e+03
9.950905e+02,9.388331e+03
1.005697e+03,9.313837e+03
1.016304e+03,9.218453e+03
1.026910e+03,9.223427e+03
1.037517e+03,9.172839e+03
1.048123e+03,9.097257e+03
1.058730e+03,9.048524e+03
1.069336e+03,9.013929e+03
1.079943e+03,8.977256e+03
1.090550e+03,8.979408e+03
1.101156e+03,8.895348e+03
1.111763e+03,8.835400e+03
1.122369e+03,8.805275e+03
1.132976e+03,8.778516e+03
1.143582e+03,8.711845e+03
1.154189e+03,8.649983e+03
1.164796e+03,8.621443e+03
1.175402e+03,8.544259e+03
1.186009e+03,8.482056e+03
1.196615e+03,8.468730e+03
1.207222e+03,8.413306e+03
1.217828e+03,8.359636e+03
1.228435e+03,8.368235e+03
1.239042e+03,8.281993e+03
1.249648e+03,8.212440e+03
1.260255e+03,8.207752e+03
1.270861e+03,8.183052e+03
1.281468e+03,8.136185e+03
1.292074e+03,8.084138e+03
1.302681e+03,8.049759e+03
1.313287e+03,8.000674e+03
1.323894e+03,7.943651e+03
1.334501e+03,7.950439e+03
1.345107e+03,7.870167e+03
1.355714e+03,7.830234e+03
1.366320e+03,7.813345e+03
1.376927e+03,7.744103e+03
1.387533e+03,7.716985e+03
1.398140e+03,7.638445e+03
1.408747e+03,7.617855e+03
1.419353e+03,7.561668e+03
1.429960e+03,7.523457e+03
1.440566e+03,7.473688e+03
1.451173e+03,7.391873e+03
1.461779e+03,7.348310e+03
1.472386e+03,7.312095e+03
1.482993e+03,7.270601e+03
1.493599e+03,7.222119e+03
1.504206e+03,7.192447e+03
1.514812e+03,7.125667e+03
1.525419e+03,7.110238e+03
1.536025e+03,7.022118e+03
1.546632e+03,6.987810e+03
1.557239e+03,6.966237e+03
1.567845e+03,6.957173e+03
1.578452e+03,6.921417e+03
1.589058e+03,6.849051e+03
1.599665e+03,6.823894e+03
1.610271e+03,6.756373e+03
1.620878e+03,6.689608e+03
1.631484e+03,6.635569e+03
1.642091e+03,6.605490e+03
1.652698e+03,6.531960e+03
1.663304e+03,6.489953e+03
1.673911e+03,6.453322e+03
1.684517e+03,6.384756e+03
1.695124e+03,6.332664e+03
1.705730e+03,6.294519e+03
1.716337e+03,6.217141e+03
1.726944e+03,6.168118e+03
1.737550e+03,6.148440e+03
1.748157e+03,6.096812e+03
1.758763e+03,6.046460e+03
1.769370e+03,6.028828e+03
1.779976e+03,5.947422e+03
1.790583e+03,5.899609e+03
1.801190e+03,5.872451e+03
1.811796e+03,5.817205e+03
1.822403e+03,5.759776e+03
1.833009e+03,5.747182e+03
1.843616e+03,5.700213e+03
1.854222e+03,5.588363e+03
1.864829e+03,5.581532e+03
1.875436e+03,5.525580e+03
1.886042e+03,5.465316e+03
1.896649e+03,5.417267e+03
1.907255e+03,5.383746e+03
1.917862e+03,5.304367e+03
1.928468e+03,5.290281e+03
1.939075e+03,5.226562e+03
1.949682e+03,5.152311e+03
1.960288e+03,5.151821e+03
1.970895e+03,5.109265e+03
1.981501e+03,5.046014e+03
1.992108e+03,5.002921e+03
2.002714e+03,4.957311e+03
2.013321e+03,4.883719e+03
2.023927e+03,4.827854e+03
2.034534e+03,4.782032e+03
2.045141e+03,4.750463e+03
2.055747e+03,4.731275e+03
2.066354e+03,4.658492e+03
2.076960e+03,4.597453e+03
2.087567e+03,4.544011e+03
2.098173e+03,4.549073e+03
2.108780e+03,4.481888e+03
2.119387e+03,4.431508e+03
2.129993e+03,4.357822e+03
2.140600e+03,4.310858e+03
2.151206e+03,4.271565e+03
2.161813e+03,4.237053e+03
2.172419e+03,4.197197e+03
2.183026e+03,4.137396e+03
2.193633e+03,4.084267e+03
2.204239e+03,4.050959e+03
2.214846e+03,3.988903e+03
2.225452e+03,3.926745e+03
2.236059e+03,3.878360e+03
2.246666e+03,3.859744e+03
2.257272e+03,3.788446e+03
2.267879e+03,3.773183e+03
2.278485e+03,3.723326e+03
2.289092e+03,3.670670e+03
2.299698e+03,3.643458e+03
2.310305e+03,3.614499e+03
2.320911e+03,3.564410e+03
2.331518e+03,3.543123e+03
2.342125e+03,3.479856e+03
2.352731e+03,3.445074e+03
2.363338e+03,3.403662e+03
2.373944e+03,3.363510e+03
2.384551e+03,3.327855e+03
2.395157e+03,3.327110e+03
2.405764e+03,3.266645e+03
2.416370e+03,3.226129e+03
2.426977e+03,3.172798e+03
2.437584e+03,3.156051e+03
2.448190e+03,3.112288e+03
2.458797e+03,3.088340e+03
2.469403e+03,3.057577e+03
2.480010e+03,3.038458e+03
2.490616e+03,2.972177e+03
2.501223e+03,2.958678e+03
2.511830e+03,2.946534e+03
2.522436e+03,2.882991e+03
2.533043e+03,2.856346e+03
2.543649e+03,2.844573e+03
2.554256e+03,2.819527e+03
2.564863e+03,2.781382e+03
2.575469e+03,2.765361e+03
2.586075e+03,2.736787e+03
2.596682e+03,2.690344e+03
2.607289e+03,2.687213e+03
2.617895e+03,2.685870e+03
2.628502e+03,2.642838e+03
2.639108e+03,2.598054e+03
2.649715e+03,2.589492e+03
2.660322e+03,2.537997e+03
2.670928e+03,2.545921e+03
2.681535e+03,2.532020e+03
2.692141e+03,2.512837e+03
2.702748e+03,2.488835e+03
2.713354e+03,2.431589e+03
2.723961e+03,2.442907e+03
2.734568e+03,2.389798e+03
2.745174e+03,2.409781e+03
2.755781e+03,2.361672e+03
2.766387e+03,2.360802e+03
2.776994e+03,2.303327e+03
2.787600e+03,2.303282e+03
2.798207e+03,2.295938e+03
2.808813e+03,2.316831e+03
2.819420e+03,2.283802e+03
2.830027e+03,2.260006e+03
2.840633e+03,2.227983e+03
2.851240e+03,2.229760e+03
2.861846e+03,2.223741e+03
2.872453e+03,2.221414e+03
2.883059e+03,2.197898e+03
2.893666e+03,2.172319e+03
2.904273e+03,2.146467e+03
2.914879e+03,2.103974e+03
2.925486e+03,2.102569e+03
2.936092e+03,2.104433e+03
2.946699e+03,2.096607e+03
2.957305e+03,2.135722e+03
2.967912e+03,2.034930e+03
2.978519e+03,2.041586e+03
2.989125e+03,2.016329e+03
2.999732e+03,2.005439e+03
3.010338e+03,2.000443e+03
3.020945e+03,1.990464e+03
3.031552e+03,1.976642e+03
3.042158e+03,1.996649e+03
3.052764e+03,1.949341e+03
3.063371e+03,1.965518e+03
3.073978e+03,1.901417e+03
3.084584e+03,1.912487e+03
3.095191e+03,1.966331e+03
3.105797e+03,1.916035e+03
3.116404e+03,1.907751e+03
3.127010e+03,1.877594e+03
3.137617e+03,1.955263e+03
3.148224e+03,1.920586e+03
3.158830e+03,1.967570e+03
3.169437e+03,1.842899e+03
3.180043e+03,1.858310e+03
3.190650e+03,1.889091e+03
3.200292e+03,1.966888e+03