File: RAMAN_data/20012023_r1/black fibre10.CSV
1.995979e+02,3.642278e+03
2.102045e+02,3.646128e+03
2.208110e+02,3.677716e+03
2.314176e+02,3.677233e+03
2.420242e+02,3.673057e+03
2.526307e+02,3.681426e+03
2.632373e+02,3.707718e+03
2.738439e+02,3.698380e+03
2.844504e+02,3.695816e+03
2.950570e+02,3.706809e+03
3.056636e+02,3.721882e+03
3.162701e+02,3.714882e+03
3.268767e+02,3.746667e+03
3.374833e+02,3.709068e+03
3.480898e+02,3.731026e+03
3.586964e+02,3.725219e+03
3.693030e+02,3.724531e+03
3.799095e+02,3.741298e+03
3.905161e+02,3.723954e+03
4.011227e+02,3.718723e+03
4.117292e+02,3.696922e+03
4.223358e+02,3.711941e+03
4.329424e+02,3.700056e+03
4.435490e+02,3.678985e+03
4.541555e+02,3.694365e+03
4.647621e+02,3.670709e+03
4.753687e+02,3.688710e+03
4.859752e+02,3.758151e+03
4.965818e+02,3.695414e+03
5.071884e+02,3.666167e+03
5.177949e+02,3.651738e+03
5.284015e+02,3.628857e+03
5.390081e+02,3.618277e+03
5.496146e+02,3.625268e+03
5.602212e+02,3.607171e+03
5.708278e+02,3.582667e+03
5.814343e+02,3.586592e+03
5.920409e+02,3.578055e+03
6.026475e+02,3.562397e+03
6.132540e+02,3.553255e+03
6.238606e+02,3.555921e+03
6.344672e+02,3.542599e+03
6.450737e+02,3.526012e+03
6.556803e+02,3.514227e+03
6.662869e+02,3.485733e+03
6.768934e+02,3.477291e+03
6.875000e+02,3.468022e+03
6.981066e+02,3.466081e+03
7.087131e+02,3.439505e+03
7.193197e+02,3.424609e+03
7.299263e+02,3.421413e+03
7.405328e+02,3.389913e+03
7.511394e+02,3.367920e+03
7.617460e+02,3.387249e+03
7.723525e+02,3.344822e+03
7.829591e+02,3.346417e+03
7.935657e+02,3.338077e+03
8.041722e+02,3.328110e+03
8.147788e+02,3.307552e+03
8.253854e+02,3.315646e+03
8.359919e+02,3.293251e+03
8.465985e+02,3.268041e+03
8.572051e+02,3.287437e+03
8.678116e+02,3.230408e+03
8.784182e+02,3.230749e+03
8.890248e+02,3.238341e+03
8.996313e+02,3.201066e+03
9.102379e+02,3.196043e+03
9.208445e+02,3.165974e+03
9.314510e+02,3.148057e+03
9.420576e+02,3.139185e+03
9.526642e+02,3.129783e+03
9.632708e+02,3.122054e+03
9.738773e+02,3.105127e+03
9.844839e+02,3.078800e+03
9.950905e+02,3.085204e+03
1.005697e+03,3.069887e+03
1.016304e+03,3.050798e+03
1.026910e+03,3.050774e+03
1.037517e+03,3.027587e+03
1.048123e+03,3.030432e+03
1.058730e+03,3.017630e+03
1.069336e+03,3.008045e+03
1.079943e+03,3.003052e+03
1.090550e+03,3.025533e+03
1.101156e+03,3.005344e+03
1.111763e+03,2.977789e+03
1.122369e+03,3.028938e+03
1.132976e+03,3.003023e+03
1.143582e+03,2.982674e+03
1.154189e+03,3.012249e+03
1.164796e+03,2.946780e+03
1.175402e+03,2.938423e+03
1.186009e+03,2.939491e+03
1.196615e+03,2.916138e+03
1.207222e+03,2.899971e+03
1.217828e+03,2.902877e+03
1.228435e+03,2.898661e+03
1.239042e+03,2.862685e+03
1.249648e+03,2.840206e+03
1.260255e+03,2.847096e+03
1.270861e+03,2.843760e+03
1.281468e+03,2.897028e+03
1.292074e+03,2.853517e+03
1.302681e+03,2.823293e+03
1.313287e+03,2.815461e+03
1.323894e+03,2.807534e+03
1.334501e+03,2.814216e+03
1.345107e+03,2.796380e+03
1.355714e+03,2.786081e+03
1.366320e+03,2.767500e+03
1.376927e+03,2.738800e+03
1.387533e+03,2.715891e+03
1.398140e+03,2.707183e+03
1.408747e+03,2.702682e+03
1.419353e+03,2.682690e+03
1.429960e+03,2.665786e+03
1.440566e+03,2.632726e+03
1.451173e+03,2.611841e+03
1.461779e+03,2.613699e+03
1.472386e+03,2.590786e+03
1.482993e+03,2.579527e+03
1.493599e+03,2.587518e+03
1.504206e+03,2.566066e+03
1.514812e+03,2.539160e+03
1.525419e+03,2.522568e+03
1.536025e+03,2.506762e+03
1.546632e+03,2.512077e+03
1.557239e+03,2.507587e+03
1.567845e+03,2.519937e+03
1.578452e+03,2.522873e+03
1.589058e+03,2.520180e+03
1.599665e+03,2.456261e+03
1.610271e+03,2.444309e+03
1.620878e+03,2.430559e+03
1.631484e+03,2.402817e+03
1.642091e+03,2.381759e+03
1.652698e+03,2.365622e+03
1.663304e+03,2.349755e+03
1.673911e+03,2.354341e+03
1.684517e+03,2.329728e+03
1.695124e+03,2.321292e+03
1.705730e+03,2.309156e+03
1.716337e+03,2.288234e+03
1.726944e+03,2.272148e+03
1.737550e+03,2.274788e+03
1.748157e+03,2.244952e+03
1.758763e+03,2.240718e+03
1.769370e+03,2.208489e+03
1.779976e+03,2.202456e+03
1.790583e+03,2.185913e+03
1.801190e+03,2.185989e+03
1.811796e+03,2.167065e+03
1.822403e+03,2.123172e+03
1.833009e+03,2.117077e+03
1.843616e+03,2.125701e+03
1.854222e+03,2.093360e+03
1.864829e+03,2.084712e+03
1.875436e+03,2.097264e+03
1.886042e+03,2.044376e+03
1.896649e+03,2.036633e+03
1.907255e+03,2.026549e+03
1.917862e+03,2.000848e+03
1.928468e+03,1.993163e+03
1.939075e+03,1.992603e+03
1.949682e+03,1.958820e+03
1.960288e+03,1.941680e+03
1.970895e+03,1.923068e+03
1.981501e+03,1.925511e+03
1.992108e+03,1.905006e+03
2.002714e+03,1.906351e+03
2.013321e+03,1.864808e+03
2.023927e+03,1.854423e+03
2.034534e+03,1.849887e+03
2.045141e+03,1.824455e+03
2.055747e+03,1.798555e+03
2.066354e+03,1.786739e+03
2.076960e+03,1.766658e+03
2.087567e+03,1.776923e+03
2.098173e+03,1.762879e+03
2.108780e+03,1.739688e+03
2.119387e+03,1.728182e+03
2.129993e+03,1.702120e+03
2.140600e+03,1.687803e+03
2.151206e+03,1.677253e+03
2.161813e+03,1.665594e+03
2.172419e+03,1.660598e+03
2.183026e+03,1.620569e+03
2.193633e+03,1.595498e+03
2.204239e+03,1.607458e+03
2.214846e+03,1.577436e+03
2.225452e+03,1.571287e+03
2.236059e+03,1.546321e+03
2.246666e+03,1.531370e+03
2.257272e+03,1.532086e+03
2.267879e+03,1.504031e+03
2.278485e+03,1.493984e+03
2.289092e+03,1.470328e+03
2.299698e+03,1.471898e+03
2.310305e+03,1.461543e+03
2.320911e+03,1.451136e+03
2.331518e+03,1.432575e+03
2.342125e+03,1.410705e+03
2.352731e+03,1.395196e+03
2.363338e+03,1.386741e+03
2.373944e+03,1.376902e+03
2.384551e+03,1.363767e+03
2.395157e+03,1.350539e+03
2.405764e+03,1.331150e+03
2.416370e+03,1.325617e+03
2.426977e+03,1.321845e+03
2.437584e+03,1.313162e+03
2.448190e+03,1.297514e+03
2.458797e+03,1.275675e+03
2.469403e+03,1.260225e+03
2.480010e+03,1.262036e+03
2.490616e+03,1.250910e+03
2.501223e+03,1.256072e+03
2.511830e+03,1.246519e+03
2.522436e+03,1.209101e+03
2.533043e+03,1.207707e+03
2.543649e+03,1.207653e+03
2.554256e+03,1.203837e+03
2.564863e+03,1.195309e+03
2.575469e+03,1.181585e+03
2.586075e+03,1.148905e+03
2.596682e+03,1.157880e+03
2.607289e+03,1.129255e+03
2.617895e+03,1.152708e+03
2.628502e+03,1.133383e+03
2.639108e+03,1.137638e+03
2.649715e+03,1.115534e+03
2.660322e+03,1.097907e+03
2.670928e+03,1.087842e+03
2.681535e+03,1.069912e+03
2.692141e+03,1.082089e+03
2.702748e+03,1.061125e+03
2.713354e+03,1.061917e+03
2.723961e+03,1.059854e+03
2.734568e+03,1.068904e+03
2.745174e+03,1.055493e+03
2.755781e+03,1.044627e+03
2.766387e+03,1.021624e+03
2.776994e+03,1.027795e+03
2.787600e+03,1.035069e+03
2.798207e+03,1.001978e+03
2.808813e+03,9.980003e+02
2.819420e+03,1.023125e+03
2.830027e+03,9.913808e+02
2.840633e+03,9.859961e+02
2.851240e+03,1.000786e+03
2.861846e+03,1.007479e+03
2.872453e+03,9.741289e+02
2.883059e+03,9.778502e+02
2.893666e+03,1.000283e+03
2.904273e+03,9.941713e+02
2.914879e+03,9.582968e+02
2.925486e+03,9.322625e+02
2.936092e+03,9.598945e+02
2.946699e+03,9.572016e+02
2.957305e+03,9.879152e+02
2.967912e+03,9.345873e+02
2.978519e+03,9.174973e+02
2.989125e+03,8.937263e+02
2.999732e+03,8.971564e+02
3.010338e+03,8.838705e+02
3.020945e+03,8.895019e+02
3.031552e+03,8.932702e+02
3.042158e+03,8.871796e+02
3.052764e+03,8.615003e+02
3.063371e+03,8.926086e+02
3.073978e+03,8.686481e+02
3.084584e+03,8.707387e+02
3.095191e+03,9.012442e+02
3.105797e+03,8.473854e+02
3.116404e+03,8.563457e+02
3.127010e+03,8.586439e+02
3.137617e+03,8.720813e+02
3.148224e+03,8.355231e+02
3.158830e+03,8.555671e+02
3.169437e+03,8.418080e+02
3.180043e+03,8.533538e+02
3.190650e+03,8.635679e+02
3.200292e+03,9.263903e+02