File: RAMAN_data/20012023_r1/black fibre1.CSV
1.995979e+02,4.237959e+03
2.102045e+02,4.245272e+03
2.208110e+02,4.273254e+03
2.314176e+02,4.271611e+03
2.420242e+02,4.285311e+03
2.526307e+02,4.333651e+03
2.632373e+02,4.331271e+03
2.738439e+02,4.321932e+03
2.844504e+02,4.360334e+03
2.950570e+02,4.359536e+03
3.056636e+02,4.345211e+03
3.162701e+02,4.357303e+03
3.268767e+02,4.360585e+03
3.374833e+02,4.350142e+03
3.480898e+02,4.370137e+03
3.586964e+02,4.359234e+03
3.693030e+02,4.371678e+03
3.799095e+02,4.375249e+03
3.905161e+02,4.366653e+03
4.011227e+02,4.342133e+03
4.117292e+02,4.344393e+03
4.223358e+02,4.358521e+03
4.329424e+02,4.323736e+03
4.435490e+02,4.326447e+03
4.541555e+02,4.323046e+03
4.647621e+02,4.309981e+03
4.753687e+02,4.306379e+03
4.859752e+02,4.326555e+03
4.965818e+02,4.306954e+03
5.071884e+02,4.265728e+03
5.177949e+02,4.263926e+03
5.284015e+02,4.264553e+03
5.390081e+02,4.207077e+03
5.496146e+02,4.189137e+03
5.602212e+02,4.206282e+03
5.708278e+02,4.193729e+03
5.814343e+02,4.170555e+03
5.920409e+02,4.147305e+03
6.026475e+02,4.133644e+03
6.132540e+02,4.113924e+03
6.238606e+02,4.090835e+03
6.344672e+02,4.085403e+03
6.450737e+02,4.061601e+03
6.556803e+02,4.058802e+03
6.662869e+02,4.014718e+03
6.768934e+02,3.996421e+03
6.875000e+02,3.977329e+03
6.981066e+02,3.944600e+03
7.087131e+02,3.925205e+03
7.193197e+02,3.930230e+03
7.299263e+02,3.915235e+03
7.405328e+02,3.882238e+03
7.511394e+02,3.850937e+03
7.617460e+02,3.836374e+03
7.723525e+02,3.781578e+03
7.829591e+02,3.775804e+03
7.935657e+02,3.786240e+03
8.041722e+02,3.733738e+03
8.147788e+02,3.704223e+03
8.253854e+02,3.694642e+03
8.359919e+02,3.683077e+03
8.465985e+02,3.646851e+03
8.572051e+02,3.629626e+03
8.678116e+02,3.606360e+03
8.784182e+02,3.576692e+03
8.890248e+02,3.553515e+03
8.996313e+02,3.531810e+03
9.102379e+02,3.523793e+03
9.208445e+02,3.474748e+03
9.314510e+02,3.447904e+03
9.420576e+02,3.438157e+03
9.526642e+02,3.406518e+03
9.632708e+02,3.396229e+03
9.738773e+02,3.366598e+03
9.844839e+02,3.339628e+03
9.950905e+02,3.322098e+03
1.005697e+03,3.297555e+03
1.016304e+03,3.266020e+03
1.026910e+03,3.261410e+03
1.037517e+03,3.260775e+03
1.048123e+03,3.227475e+03
1.058730e+03,3.196472e+03
1.069336e+03,3.187094e+03
1.079943e+03,3.154309e+03
1.090550e+03,3.178618e+03
1.101156e+03,3.130984e+03
1.111763e+03,3.105000e+03
1.122369e+03,3.130673e+03
1.132976e+03,3.091490e+03
1.143582e+03,3.090445e+03
1.154189e+03,3.081548e+03
1.164796e+03,3.013909e+03
1.175402e+03,3.010245e+03
1.186009e+03,2.980544e+03
1.196615e+03,2.973041e+03
1.207222e+03,2.937010e+03
1.217828e+03,2.943265e+03
1.228435e+03,2.927048e+03
1.239042e+03,2.891494e+03
1.249648e+03,2.863716e+03
1.260255e+03,2.862948e+03
1.270861e+03,2.831813e+03
1.281468e+03,2.849708e+03
1.292074e+03,2.832493e+03
1.302681e+03,2.804366e+03
1.313287e+03,2.778489e+03
1.323894e+03,2.761039e+03
1.334501e+03,2.763466e+03
1.345107e+03,2.744333e+03
1.355714e+03,2.735794e+03
1.366320e+03,2.724100e+03
1.376927e+03,2.698637e+03
1.387533e+03,2.655013e+03
1.398140e+03,2.647324e+03
1.408747e+03,2.645692e+03
1.419353e+03,2.621950e+03
1.429960e+03,2.601091e+03
1.440566e+03,2.572514e+03
1.451173e+03,2.561189e+03
1.461779e+03,2.546656e+03
1.472386e+03,2.528540e+03
1.482993e+03,2.493572e+03
1.493599e+03,2.497640e+03
1.504206e+03,2.464504e+03
1.514812e+03,2.471228e+03
1.525419e+03,2.436367e+03
1.536025e+03,2.426214e+03
1.546632e+03,2.410776e+03
1.557239e+03,2.421627e+03
1.567845e+03,2.411581e+03
1.578452e+03,2.394093e+03
1.589058e+03,2.390419e+03
1.599665e+03,2.351934e+03
1.610271e+03,2.325774e+03
1.620878e+03,2.311784e+03
1.631484e+03,2.290710e+03
1.642091e+03,2.271132e+03
1.652698e+03,2.257113e+03
1.663304e+03,2.231405e+03
1.673911e+03,2.228205e+03
1.684517e+03,2.211262e+03
1.695124e+03,2.195679e+03
1.705730e+03,2.174913e+03
1.716337e+03,2.159276e+03
1.726944e+03,2.134471e+03
1.737550e+03,2.121012e+03
1.748157e+03,2.106139e+03
1.758763e+03,2.086970e+03
1.769370e+03,2.075133e+03
1.779976e+03,2.039295e+03
1.790583e+03,2.033607e+03
1.801190e+03,2.036050e+03
1.811796e+03,2.000872e+03
1.822403e+03,1.963676e+03
1.833009e+03,1.985812e+03
1.843616e+03,1.949777e+03
1.854222e+03,1.933809e+03
1.864829e+03,1.924066e+03
1.875436e+03,1.914004e+03
1.886042e+03,1.884759e+03
1.896649e+03,1.869620e+03
1.907255e+03,1.846722e+03
1.917862e+03,1.822627e+03
1.928468e+03,1.807369e+03
1.939075e+03,1.798978e+03
1.949682e+03,1.780260e+03
1.960288e+03,1.768357e+03
1.970895e+03,1.761474e+03
1.981501e+03,1.729215e+03
1.992108e+03,1.705436e+03
2.002714e+03,1.682409e+03
2.013321e+03,1.687699e+03
2.023927e+03,1.661580e+03
2.034534e+03,1.643056e+03
2.045141e+03,1.631109e+03
2.055747e+03,1.601731e+03
2.066354e+03,1.579284e+03
2.076960e+03,1.591091e+03
2.087567e+03,1.555132e+03
2.098173e+03,1.526639e+03
2.108780e+03,1.530548e+03
2.119387e+03,1.502010e+03
2.129993e+03,1.495469e+03
2.140600e+03,1.467109e+03
2.151206e+03,1.457445e+03
2.161813e+03,1.425071e+03
2.172419e+03,1.443672e+03
2.183026e+03,1.413431e+03
2.193633e+03,1.399864e+03
2.204239e+03,1.377926e+03
2.214846e+03,1.374379e+03
2.225452e+03,1.343572e+03
2.236059e+03,1.328104e+03
2.246666e+03,1.312016e+03
2.257272e+03,1.301516e+03
2.267879e+03,1.281141e+03
2.278485e+03,1.278324e+03
2.289092e+03,1.247920e+03
2.299698e+03,1.257011e+03
2.310305e+03,1.228008e+03
2.320911e+03,1.206312e+03
2.331518e+03,1.200099e+03
2.342125e+03,1.176035e+03
2.352731e+03,1.173611e+03
2.363338e+03,1.166024e+03
2.373944e+03,1.156794e+03
2.384551e+03,1.146520e+03
2.395157e+03,1.130248e+03
2.405764e+03,1.120933e+03
2.416370e+03,1.097019e+03
2.426977e+03,1.085181e+03
2.437584e+03,1.052217e+03
2.448190e+03,1.070138e+03
2.458797e+03,1.051805e+03
2.469403e+03,1.047556e+03
2.480010e+03,1.040152e+03
2.490616e+03,1.008692e+03
2.501223e+03,9.940585e+02
2.511830e+03,1.009260e+03
2.522436e+03,9.837009e+02
2.533043e+03,9.776252e+02
2.543649e+03,9.727011e+02
2.554256e+03,9.694132e+02
2.564863e+03,9.523073e+02
2.575469e+03,9.430555e+02
2.586075e+03,9.297344e+02
2.596682e+03,9.237506e+02
2.607289e+03,9.308824e+02
2.617895e+03,9.056651e+02
2.628502e+03,8.992466e+02
2.639108e+03,9.042938e+02
2.649715e+03,8.761496e+02
2.660322e+03,8.739774e+02
2.670928e+03,8.603052e+02
2.681535e+03,8.662691e+02
2.692141e+03,8.346732e+02
2.702748e+03,8.450891e+02
2.713354e+03,8.427267e+02
2.723961e+03,8.294672e+02
2.734568e+03,8.277209e+02
2.745174e+03,8.114987e+02
2.755781e+03,8.186020e+02
2.766387e+03,8.000554e+02
2.776994e+03,7.978848e+02
2.787600e+03,7.861513e+02
2.798207e+03,7.859775e+02
2.808813e+03,7.797205e+02
2.819420e+03,7.977262e+02
2.830027e+03,7.798510e+02
2.840633e+03,7.562442e+02
2.851240e+03,7.861643e+02
2.861846e+03,7.658454e+02
2.872453e+03,7.718732e+02
2.883059e+03,7.818704e+02
2.893666e+03,7.682775e+02
2.904273e+03,7.592372e+02
2.914879e+03,7.684485e+02
2.925486e+03,7.351338e+02
2.936092e+03,7.459051e+02
2.946699e+03,7.120586e+02
2.957305e+03,7.599180e+02
2.967912e+03,7.033412e+02
2.978519e+03,7.183954e+02
2.989125e+03,6.756940e+02
2.999732e+03,6.674106e+02
3.010338e+03,6.866700e+02
3.020945e+03,6.875315e+02
3.031552e+03,6.632538e+02
3.042158e+03,6.751003e+02
3.052764e+03,6.787068e+02
3.063371e+03,6.384573e+02
3.073978e+03,6.855140e+02
3.084584e+03,6.720928e+02
3.095191e+03,6.852225e+02
3.105797e+03,6.612135e+02
3.116404e+03,6.918093e+02
3.127010e+03,6.546190e+02
3.137617e+03,6.804377e+02
3.148224e+03,6.585378e+02
3.158830e+03,6.452156e+02
3.169437e+03,6.658952e+02
3.180043e+03,6.674494e+02
3.190650e+03,6.985974e+02
3.200292e+03,6.964701e+02