File: RAMAN_data/20012023_r1/black fibre6.CSV
1.995979e+02,2.764760e+03
2.102045e+02,2.770641e+03
2.208110e+02,2.778730e+03
2.314176e+02,2.770461e+03
2.420242e+02,2.749741e+03
2.526307e+02,2.780843e+03
2.632373e+02,2.784261e+03
2.738439e+02,2.790315e+03
2.844504e+02,2.763648e+03
2.950570e+02,2.782523e+03
3.056636e+02,2.790841e+03
3.162701e+02,2.795949e+03
3.268767e+02,2.804540e+03
3.374833e+02,2.797258e+03
3.480898e+02,2.790478e+03
3.586964e+02,2.779220e+03
3.693030e+02,2.782343e+03
3.799095e+02,2.816920e+03
3.905161e+02,2.767275e+03
4.011227e+02,2.750684e+03
4.117292e+02,2.750164e+03
4.223358e+02,2.758753e+03
4.329424e+02,2.761769e+03
4.435490e+02,2.746612e+03
4.541555e+02,2.748552e+03
4.647621e+02,2.719622e+03
4.753687e+02,2.692193e+03
4.859752e+02,2.689070e+03
4.965818e+02,2.683018e+03
5.071884e+02,2.660183e+03
5.177949e+02,2.694031e+03
5.284015e+02,2.649785e+03
5.390081e+02,2.650165e+03
5.496146e+02,2.649232e+03
5.602212e+02,2.641167e+03
5.708278e+02,2.619321e+03
5.814343e+02,2.612886e+03
5.920409e+02,2.581857e+03
6.026475e+02,2.591484e+03
6.132540e+02,2.581038e+03
6.238606e+02,2.560211e+03
6.344672e+02,2.547035e+03
6.450737e+02,2.540573e+03
6.556803e+02,2.542089e+03
6.662869e+02,2.526170e+03
6.768934e+02,2.501858e+03
6.875000e+02,2.492569e+03
6.981066e+02,2.480015e+03
7.087131e+02,2.458417e+03
7.193197e+02,2.450835e+03
7.299263e+02,2.449014e+03
7.405328e+02,2.418032e+03
7.511394e+02,2.418258e+03
7.617460e+02,2.417708e+03
7.723525e+02,2.397201e+03
7.829591e+02,2.378322e+03
7.935657e+02,2.367578e+03
8.041722e+02,2.334509e+03
8.147788e+02,2.322526e+03
8.253854e+02,2.334304e+03
8.359919e+02,2.320977e+03
8.465985e+02,2.295993e+03
8.572051e+02,2.302908e+03
8.678116e+02,2.279755e+03
8.784182e+02,2.274390e+03
8.890248e+02,2.277378e+03
8.996313e+02,2.243716e+03
9.102379e+02,2.210271e+03
9.208445e+02,2.184501e+03
9.314510e+02,2.173850e+03
9.420576e+02,2.157247e+03
9.526642e+02,2.145460e+03
9.632708e+02,2.131161e+03
9.738773e+02,2.135091e+03
9.844839e+02,2.114750e+03
9.950905e+02,2.126451e+03
1.005697e+03,2.092812e+03
1.016304e+03,2.063078e+03
1.026910e+03,2.070174e+03
1.037517e+03,2.052226e+03
1.048123e+03,2.040832e+03
1.058730e+03,2.054754e+03
1.069336e+03,2.050031e+03
1.079943e+03,2.037164e+03
1.090550e+03,2.068702e+03
1.101156e+03,2.038131e+03
1.111763e+03,2.035141e+03
1.122369e+03,2.026971e+03
1.132976e+03,2.017862e+03
1.143582e+03,1.980172e+03
1.154189e+03,1.991882e+03
1.164796e+03,1.979681e+03
1.175402e+03,1.935409e+03
1.186009e+03,1.927887e+03
1.196615e+03,1.930275e+03
1.207222e+03,1.920120e+03
1.217828e+03,1.903030e+03
1.228435e+03,1.896947e+03
1.239042e+03,1.869220e+03
1.249648e+03,1.860588e+03
1.260255e+03,1.847077e+03
1.270861e+03,1.851878e+03
1.281468e+03,1.869043e+03
1.292074e+03,1.855105e+03
1.302681e+03,1.854770e+03
1.313287e+03,1.864465e+03
1.323894e+03,1.880298e+03
1.334501e+03,1.861542e+03
1.345107e+03,1.829818e+03
1.355714e+03,1.786080e+03
1.366320e+03,1.782228e+03
1.376927e+03,1.762179e+03
1.387533e+03,1.749756e+03
1.398140e+03,1.724873e+03
1.408747e+03,1.713018e+03
1.419353e+03,1.722106e+03
1.429960e+03,1.717719e+03
1.440566e+03,1.693193e+03
1.451173e+03,1.688294e+03
1.461779e+03,1.675085e+03
1.472386e+03,1.648786e+03
1.482993e+03,1.647649e+03
1.493599e+03,1.628536e+03
1.504206e+03,1.610254e+03
1.514812e+03,1.584040e+03
1.525419e+03,1.590803e+03
1.536025e+03,1.597037e+03
1.546632e+03,1.598334e+03
1.557239e+03,1.593538e+03
1.567845e+03,1.590476e+03
1.578452e+03,1.583192e+03
1.589058e+03,1.564250e+03
1.599665e+03,1.564238e+03
1.610271e+03,1.628625e+03
1.620878e+03,1.535631e+03
1.631484e+03,1.503061e+03
1.642091e+03,1.488718e+03
1.652698e+03,1.476026e+03
1.663304e+03,1.482965e+03
1.673911e+03,1.459342e+03
1.684517e+03,1.453329e+03
1.695124e+03,1.436793e+03
1.705730e+03,1.431983e+03
1.716337e+03,1.423757e+03
1.726944e+03,1.445883e+03
1.737550e+03,1.405060e+03
1.748157e+03,1.391165e+03
1.758763e+03,1.376417e+03
1.769370e+03,1.368978e+03
1.779976e+03,1.359323e+03
1.790583e+03,1.361667e+03
1.801190e+03,1.331210e+03
1.811796e+03,1.316293e+03
1.822403e+03,1.295107e+03
1.833009e+03,1.304886e+03
1.843616e+03,1.285285e+03
1.854222e+03,1.267600e+03
1.864829e+03,1.244362e+03
1.875436e+03,1.235441e+03
1.886042e+03,1.248095e+03
1.896649e+03,1.230996e+03
1.907255e+03,1.219073e+03
1.917862e+03,1.196718e+03
1.928468e+03,1.195650e+03
1.939075e+03,1.176151e+03
1.949682e+03,1.170131e+03
1.960288e+03,1.151035e+03
1.970895e+03,1.149188e+03
1.981501e+03,1.142467e+03
1.992108e+03,1.127247e+03
2.002714e+03,1.122700e+03
2.013321e+03,1.107772e+03
2.023927e+03,1.109017e+03
2.034534e+03,1.085777e+03
2.045141e+03,1.091381e+03
2.055747e+03,1.060285e+03
2.066354e+03,1.052726e+03
2.076960e+03,1.036790e+03
2.087567e+03,1.019287e+03
2.098173e+03,1.023558e+03
2.108780e+03,1.007831e+03
2.119387e+03,9.921686e+02
2.129993e+03,9.884684e+02
2.140600e+03,9.908336e+02
2.151206e+03,9.552845e+02
2.161813e+03,9.563422e+02
2.172419e+03,9.465266e+02
2.183026e+03,9.359991e+02
2.193633e+03,9.120604e+02
2.204239e+03,9.196583e+02
2.214846e+03,9.032151e+02
2.225452e+03,8.864810e+02
2.236059e+03,8.843718e+02
2.246666e+03,8.757244e+02
2.257272e+03,8.709539e+02
2.267879e+03,8.469201e+02
2.278485e+03,8.352757e+02
2.289092e+03,8.330357e+02
2.299698e+03,8.315011e+02
2.310305e+03,8.271736e+02
2.320911e+03,7.992200e+02
2.331518e+03,7.994735e+02
2.342125e+03,7.833644e+02
2.352731e+03,7.863863e+02
2.363338e+03,7.765531e+02
2.373944e+03,7.579915e+02
2.384551e+03,7.559973e+02
2.395157e+03,7.460092e+02
2.405764e+03,7.440807e+02
2.416370e+03,7.371437e+02
2.426977e+03,7.278837e+02
2.437584e+03,7.255583e+02
2.448190e+03,7.021391e+02
2.458797e+03,7.070115e+02
2.469403e+03,6.934960e+02
2.480010e+03,7.066135e+02
2.490616e+03,6.912042e+02
2.501223e+03,6.860250e+02
2.511830e+03,6.686368e+02
2.522436e+03,6.705163e+02
2.533043e+03,6.633796e+02
2.543649e+03,6.514568e+02
2.554256e+03,6.663453e+02
2.564863e+03,6.600311e+02
2.575469e+03,6.422598e+02
2.586075e+03,6.435350e+02
2.596682e+03,6.406663e+02
2.607289e+03,6.047422e+02
2.617895e+03,6.087582e+02
2.628502e+03,6.076234e+02
2.639108e+03,6.065479e+02
2.649715e+03,6.097266e+02
2.660322e+03,5.941070e+02
2.670928e+03,5.825906e+02
2.681535e+03,5.847645e+02
2.692141e+03,5.828600e+02
2.702748e+03,5.730085e+02
2.713354e+03,5.871786e+02
2.723961e+03,5.729984e+02
2.734568e+03,5.757227e+02
2.745174e+03,5.730256e+02
2.755781e+03,5.534857e+02
2.766387e+03,5.254650e+02
2.776994e+03,5.515348e+02
2.787600e+03,5.429077e+02
2.798207e+03,5.561774e+02
2.808813e+03,5.467131e+02
2.819420e+03,5.449421e+02
2.830027e+03,5.581080e+02
2.840633e+03,5.318514e+02
2.851240e+03,5.424949e+02
2.861846e+03,5.445485e+02
2.872453e+03,5.296981e+02
2.883059e+03,5.503802e+02
2.893666e+03,5.627765e+02
2.904273e+03,5.546684e+02
2.914879e+03,5.386282e+02
2.925486e+03,5.302847e+02
2.936092e+03,5.342711e+02
2.946699e+03,5.419945e+02
2.957305e+03,5.757868e+02
2.967912e+03,5.074672e+02
2.978519e+03,5.026320e+02
2.989125e+03,4.979564e+02
2.999732e+03,4.711240e+02
3.010338e+03,4.876754e+02
3.020945e+03,5.001299e+02
3.031552e+03,4.635726e+02
3.042158e+03,4.870587e+02
3.052764e+03,4.988732e+02
3.063371e+03,4.996830e+02
3.073978e+03,4.853854e+02
3.084584e+03,4.929727e+02
3.095191e+03,4.797828e+02
3.105797e+03,4.650023e+02
3.116404e+03,4.925594e+02
3.127010e+03,4.577008e+02
3.137617e+03,4.876749e+02
3.148224e+03,4.752718e+02
3.158830e+03,4.765327e+02
3.169437e+03,5.027124e+02
3.180043e+03,4.714065e+02
3.190650e+03,4.808848e+02
3.200292e+03,5.161293e+02