File: RAMAN_data/20012023_r1/black fibre2.CSV
1.995979e+02,3.113668e+03
2.102045e+02,3.123209e+03
2.208110e+02,3.137477e+03
2.314176e+02,3.151750e+03
2.420242e+02,3.165918e+03
2.526307e+02,3.178848e+03
2.632373e+02,3.184819e+03
2.738439e+02,3.194303e+03
2.844504e+02,3.213824e+03
2.950570e+02,3.207412e+03
3.056636e+02,3.203198e+03
3.162701e+02,3.226619e+03
3.268767e+02,3.240109e+03
3.374833e+02,3.229068e+03
3.480898e+02,3.227547e+03
3.586964e+02,3.248147e+03
3.693030e+02,3.245428e+03
3.799095e+02,3.245724e+03
3.905161e+02,3.237764e+03
4.011227e+02,3.231695e+03
4.117292e+02,3.233059e+03
4.223358e+02,3.228577e+03
4.329424e+02,3.237156e+03
4.435490e+02,3.236535e+03
4.541555e+02,3.237014e+03
4.647621e+02,3.213070e+03
4.753687e+02,3.202005e+03
4.859752e+02,3.223038e+03
4.965818e+02,3.200877e+03
5.071884e+02,3.187504e+03
5.177949e+02,3.209119e+03
5.284015e+02,3.166639e+03
5.390081e+02,3.155022e+03
5.496146e+02,3.140393e+03
5.602212e+02,3.149710e+03
5.708278e+02,3.128628e+03
5.814343e+02,3.127159e+03
5.920409e+02,3.117644e+03
6.026475e+02,3.099216e+03
6.132540e+02,3.092439e+03
6.238606e+02,3.079198e+03
6.344672e+02,3.062702e+03
6.450737e+02,3.039425e+03
6.556803e+02,3.040229e+03
6.662869e+02,3.019133e+03
6.768934e+02,3.005197e+03
6.875000e+02,3.008285e+03
6.981066e+02,2.984848e+03
7.087131e+02,2.953364e+03
7.193197e+02,2.950026e+03
7.299263e+02,2.951154e+03
7.405328e+02,2.920825e+03
7.511394e+02,2.896465e+03
7.617460e+02,2.911697e+03
7.723525e+02,2.873496e+03
7.829591e+02,2.838500e+03
7.935657e+02,2.848304e+03
8.041722e+02,2.831704e+03
8.147788e+02,2.819711e+03
8.253854e+02,2.788310e+03
8.359919e+02,2.789070e+03
8.465985e+02,2.741040e+03
8.572051e+02,2.750974e+03
8.678116e+02,2.735075e+03
8.784182e+02,2.714228e+03
8.890248e+02,2.700829e+03
8.996313e+02,2.691474e+03
9.102379e+02,2.674826e+03
9.208445e+02,2.636038e+03
9.314510e+02,2.637810e+03
9.420576e+02,2.593094e+03
9.526642e+02,2.600860e+03
9.632708e+02,2.587333e+03
9.738773e+02,2.566507e+03
9.844839e+02,2.548752e+03
9.950905e+02,2.543121e+03
1.005697e+03,2.500516e+03
1.016304e+03,2.512474e+03
1.026910e+03,2.476735e+03
1.037517e+03,2.471144e+03
1.048123e+03,2.454578e+03
1.058730e+03,2.454391e+03
1.069336e+03,2.437934e+03
1.079943e+03,2.413015e+03
1.090550e+03,2.433633e+03
1.101156e+03,2.390011e+03
1.111763e+03,2.387781e+03
1.122369e+03,2.398663e+03
1.132976e+03,2.367171e+03
1.143582e+03,2.331329e+03
1.154189e+03,2.330859e+03
1.164796e+03,2.295523e+03
1.175402e+03,2.273257e+03
1.186009e+03,2.257782e+03
1.196615e+03,2.251082e+03
1.207222e+03,2.233712e+03
1.217828e+03,2.222591e+03
1.228435e+03,2.209919e+03
1.239042e+03,2.203223e+03
1.249648e+03,2.173604e+03
1.260255e+03,2.176473e+03
1.270861e+03,2.168175e+03
1.281468e+03,2.166748e+03
1.292074e+03,2.146511e+03
1.302681e+03,2.117588e+03
1.313287e+03,2.098316e+03
1.323894e+03,2.098555e+03
1.334501e+03,2.107157e+03
1.345107e+03,2.087967e+03
1.355714e+03,2.068520e+03
1.366320e+03,2.063690e+03
1.376927e+03,2.051129e+03
1.387533e+03,2.027178e+03
1.398140e+03,2.014535e+03
1.408747e+03,1.999223e+03
1.419353e+03,1.984861e+03
1.429960e+03,1.970506e+03
1.440566e+03,1.935941e+03
1.451173e+03,1.925589e+03
1.461779e+03,1.923096e+03
1.472386e+03,1.911263e+03
1.482993e+03,1.894136e+03
1.493599e+03,1.890772e+03
1.504206e+03,1.876593e+03
1.514812e+03,1.850461e+03
1.525419e+03,1.844616e+03
1.536025e+03,1.838857e+03
1.546632e+03,1.822927e+03
1.557239e+03,1.805469e+03
1.567845e+03,1.808036e+03
1.578452e+03,1.811613e+03
1.589058e+03,1.794760e+03
1.599665e+03,1.768008e+03
1.610271e+03,1.755396e+03
1.620878e+03,1.730683e+03
1.631484e+03,1.720730e+03
1.642091e+03,1.709045e+03
1.652698e+03,1.705695e+03
1.663304e+03,1.686281e+03
1.673911e+03,1.681364e+03
1.684517e+03,1.642103e+03
1.695124e+03,1.653452e+03
1.705730e+03,1.631965e+03
1.716337e+03,1.612956e+03
1.726944e+03,1.592393e+03
1.737550e+03,1.595315e+03
1.748157e+03,1.582070e+03
1.758763e+03,1.566690e+03
1.769370e+03,1.568307e+03
1.779976e+03,1.546604e+03
1.790583e+03,1.519931e+03
1.801190e+03,1.523861e+03
1.811796e+03,1.512034e+03
1.822403e+03,1.496935e+03
1.833009e+03,1.492156e+03
1.843616e+03,1.469702e+03
1.854222e+03,1.453889e+03
1.864829e+03,1.433434e+03
1.875436e+03,1.430166e+03
1.886042e+03,1.412182e+03
1.896649e+03,1.402303e+03
1.907255e+03,1.394257e+03
1.917862e+03,1.358556e+03
1.928468e+03,1.361510e+03
1.939075e+03,1.344659e+03
1.949682e+03,1.340036e+03
1.960288e+03,1.332806e+03
1.970895e+03,1.304860e+03
1.981501e+03,1.298351e+03
1.992108e+03,1.279516e+03
2.002714e+03,1.272864e+03
2.013321e+03,1.255488e+03
2.023927e+03,1.250642e+03
2.034534e+03,1.230002e+03
2.045141e+03,1.223460e+03
2.055747e+03,1.205201e+03
2.066354e+03,1.192193e+03
2.076960e+03,1.184569e+03
2.087567e+03,1.180831e+03
2.098173e+03,1.144951e+03
2.108780e+03,1.153781e+03
2.119387e+03,1.131480e+03
2.129993e+03,1.114017e+03
2.140600e+03,1.103261e+03
2.151206e+03,1.086946e+03
2.161813e+03,1.084680e+03
2.172419e+03,1.065176e+03
2.183026e+03,1.055326e+03
2.193633e+03,1.041900e+03
2.204239e+03,1.037217e+03
2.214846e+03,1.015735e+03
2.225452e+03,9.936572e+02
2.236059e+03,9.928121e+02
2.246666e+03,9.820928e+02
2.257272e+03,9.716408e+02
2.267879e+03,9.627687e+02
2.278485e+03,9.476671e+02
2.289092e+03,9.335079e+02
2.299698e+03,9.258992e+02
2.310305e+03,9.278202e+02
2.320911e+03,9.151359e+02
2.331518e+03,9.093976e+02
2.342125e+03,8.928300e+02
2.352731e+03,8.707169e+02
2.363338e+03,8.557748e+02
2.373944e+03,8.563543e+02
2.384551e+03,8.484081e+02
2.395157e+03,8.405201e+02
2.405764e+03,8.254750e+02
2.416370e+03,8.204985e+02
2.426977e+03,8.034315e+02
2.437584e+03,8.020970e+02
2.448190e+03,7.917108e+02
2.458797e+03,7.707156e+02
2.469403e+03,7.772980e+02
2.480010e+03,7.781132e+02
2.490616e+03,7.627121e+02
2.501223e+03,7.553167e+02
2.511830e+03,7.466851e+02
2.522436e+03,7.418958e+02
2.533043e+03,7.294238e+02
2.543649e+03,7.259898e+02
2.554256e+03,7.187077e+02
2.564863e+03,7.116098e+02
2.575469e+03,6.988773e+02
2.586075e+03,6.956775e+02
2.596682e+03,6.864589e+02
2.607289e+03,6.866353e+02
2.617895e+03,6.656940e+02
2.628502e+03,6.605333e+02
2.639108e+03,6.570100e+02
2.649715e+03,6.539082e+02
2.660322e+03,6.487047e+02
2.670928e+03,6.535748e+02
2.681535e+03,6.435861e+02
2.692141e+03,6.306817e+02
2.702748e+03,6.256737e+02
2.713354e+03,6.312147e+02
2.723961e+03,6.197558e+02
2.734568e+03,6.142318e+02
2.745174e+03,6.158954e+02
2.755781e+03,6.080515e+02
2.766387e+03,6.098699e+02
2.776994e+03,5.805980e+02
2.787600e+03,5.957034e+02
2.798207e+03,5.848740e+02
2.808813e+03,5.673492e+02
2.819420e+03,5.852582e+02
2.830027e+03,5.704606e+02
2.840633e+03,5.823329e+02
2.851240e+03,5.714843e+02
2.861846e+03,6.042521e+02
2.872453e+03,5.830303e+02
2.883059e+03,5.968419e+02
2.893666e+03,6.138283e+02
2.904273e+03,6.027530e+02
2.914879e+03,5.878829e+02
2.925486e+03,5.571004e+02
2.936092e+03,5.541984e+02
2.946699e+03,5.524886e+02
2.957305e+03,5.736674e+02
2.967912e+03,5.356052e+02
2.978519e+03,5.239471e+02
2.989125e+03,4.928858e+02
2.999732e+03,5.156824e+02
3.010338e+03,5.217012e+02
3.020945e+03,5.000023e+02
3.031552e+03,4.934784e+02
3.042158e+03,4.942041e+02
3.052764e+03,5.050283e+02
3.063371e+03,4.879832e+02
3.073978e+03,4.925906e+02
3.084584e+03,5.020080e+02
3.095191e+03,5.114599e+02
3.105797e+03,4.842437e+02
3.116404e+03,5.072322e+02
3.127010e+03,4.757190e+02
3.137617e+03,4.926261e+02
3.148224e+03,4.563250e+02
3.158830e+03,4.840789e+02
3.169437e+03,4.874865e+02
3.180043e+03,4.852185e+02
3.190650e+03,4.849336e+02
3.200292e+03,5.027825e+02