File: RAMAN_data/20012023_r1/black fibre13.CSV
1.995979e+02,1.046964e+04
2.102045e+02,1.054658e+04
2.208110e+02,1.066089e+04
2.314176e+02,1.074347e+04
2.420242e+02,1.080683e+04
2.526307e+02,1.090178e+04
2.632373e+02,1.097515e+04
2.738439e+02,1.105213e+04
2.844504e+02,1.111969e+04
2.950570e+02,1.118594e+04
3.056636e+02,1.120233e+04
3.162701e+02,1.128566e+04
3.268767e+02,1.130555e+04
3.374833e+02,1.133168e+04
3.480898e+02,1.142402e+04
3.586964e+02,1.148697e+04
3.693030e+02,1.146964e+04
3.799095e+02,1.152558e+04
3.905161e+02,1.149097e+04
4.011227e+02,1.148741e+04
4.117292e+02,1.145605e+04
4.223358e+02,1.145278e+04
4.329424e+02,1.140306e+04
4.435490e+02,1.140958e+04
4.541555e+02,1.138018e+04
4.647621e+02,1.134876e+04
4.753687e+02,1.133100e+04
4.859752e+02,1.132023e+04
4.965818e+02,1.132094e+04
5.071884e+02,1.124690e+04
5.177949e+02,1.123602e+04
5.284015e+02,1.117917e+04
5.390081e+02,1.110475e+04
5.496146e+02,1.109572e+04
5.602212e+02,1.106185e+04
5.708278e+02,1.099405e+04
5.814343e+02,1.096112e+04
5.920409e+02,1.093058e+04
6.026475e+02,1.088748e+04
6.132540e+02,1.086518e+04
6.238606e+02,1.082728e+04
6.344672e+02,1.076188e+04
6.450737e+02,1.068479e+04
6.556803e+02,1.065285e+04
6.662869e+02,1.062330e+04
6.768934e+02,1.054472e+04
6.875000e+02,1.049143e+04
6.981066e+02,1.048443e+04
7.087131e+02,1.041376e+04
7.193197e+02,1.035642e+04
7.299263e+02,1.028008e+04
7.405328e+02,1.023781e+04
7.511394e+02,1.020103e+04
7.617460e+02,1.014781e+04
7.723525e+02,1.007561e+04
7.829591e+02,1.002896e+04
7.935657e+02,1.000334e+04
8.041722e+02,9.890529e+03
8.147788e+02,9.854440e+03
8.253854e+02,9.824124e+03
8.359919e+02,9.778513e+03
8.465985e+02,9.700056e+03
8.572051e+02,9.670989e+03
8.678116e+02,9.582533e+03
8.784182e+02,9.541994e+03
8.890248e+02,9.525585e+03
8.996313e+02,9.443558e+03
9.102379e+02,9.373203e+03
9.208445e+02,9.275543e+03
9.314510e+02,9.255830e+03
9.420576e+02,9.211293e+03
9.526642e+02,9.151378e+03
9.632708e+02,9.113389e+03
9.738773e+02,9.039618e+03
9.844839e+02,8.980109e+03
9.950905e+02,8.954419e+03
1.005697e+03,8.910973e+03
1.016304e+03,8.833318e+03
1.026910e+03,8.810380e+03
1.037517e+03,8.766246e+03
1.048123e+03,8.691548e+03
1.058730e+03,8.654241e+03
1.069336e+03,8.622682e+03
1.079943e+03,8.570273e+03
1.090550e+03,8.584038e+03
1.101156e+03,8.507021e+03
1.111763e+03,8.455830e+03
1.122369e+03,8.445426e+03
1.132976e+03,8.424225e+03
1.143582e+03,8.343624e+03
1.154189e+03,8.305512e+03
1.164796e+03,8.246203e+03
1.175402e+03,8.212879e+03
1.186009e+03,8.158720e+03
1.196615e+03,8.135440e+03
1.207222e+03,8.104482e+03
1.217828e+03,8.053909e+03
1.228435e+03,8.016688e+03
1.239042e+03,7.965202e+03
1.249648e+03,7.912899e+03
1.260255e+03,7.869132e+03
1.270861e+03,7.856267e+03
1.281468e+03,7.817900e+03
1.292074e+03,7.808844e+03
1.302681e+03,7.749921e+03
1.313287e+03,7.709147e+03
1.323894e+03,7.677626e+03
1.334501e+03,7.667918e+03
1.345107e+03,7.595056e+03
1.355714e+03,7.551649e+03
1.366320e+03,7.528633e+03
1.376927e+03,7.454728e+03
1.387533e+03,7.387564e+03
1.398140e+03,7.391117e+03
1.408747e+03,7.347662e+03
1.419353e+03,7.277356e+03
1.429960e+03,7.256644e+03
1.440566e+03,7.159851e+03
1.451173e+03,7.138318e+03
1.461779e+03,7.130489e+03
1.472386e+03,7.066376e+03
1.482993e+03,7.014357e+03
1.493599e+03,6.978623e+03
1.504206e+03,6.937964e+03
1.514812e+03,6.886529e+03
1.525419e+03,6.842222e+03
1.536025e+03,6.788653e+03
1.546632e+03,6.773087e+03
1.557239e+03,6.738084e+03
1.567845e+03,6.721415e+03
1.578452e+03,6.655820e+03
1.589058e+03,6.648029e+03
1.599665e+03,6.603564e+03
1.610271e+03,6.540036e+03
1.620878e+03,6.489024e+03
1.631484e+03,6.428384e+03
1.642091e+03,6.386999e+03
1.652698e+03,6.322143e+03
1.663304e+03,6.291503e+03
1.673911e+03,6.233526e+03
1.684517e+03,6.195175e+03
1.695124e+03,6.126823e+03
1.705730e+03,6.135031e+03
1.716337e+03,6.054326e+03
1.726944e+03,5.987380e+03
1.737550e+03,5.974570e+03
1.748157e+03,5.897915e+03
1.758763e+03,5.867440e+03
1.769370e+03,5.804222e+03
1.779976e+03,5.761664e+03
1.790583e+03,5.737169e+03
1.801190e+03,5.686346e+03
1.811796e+03,5.648843e+03
1.822403e+03,5.580336e+03
1.833009e+03,5.532117e+03
1.843616e+03,5.520089e+03
1.854222e+03,5.457242e+03
1.864829e+03,5.412996e+03
1.875436e+03,5.378110e+03
1.886042e+03,5.313936e+03
1.896649e+03,5.290372e+03
1.907255e+03,5.263985e+03
1.917862e+03,5.151789e+03
1.928468e+03,5.134681e+03
1.939075e+03,5.064966e+03
1.949682e+03,5.036010e+03
1.960288e+03,4.994486e+03
1.970895e+03,4.939600e+03
1.981501e+03,4.905295e+03
1.992108e+03,4.855011e+03
2.002714e+03,4.799378e+03
2.013321e+03,4.771086e+03
2.023927e+03,4.693975e+03
2.034534e+03,4.682446e+03
2.045141e+03,4.641154e+03
2.055747e+03,4.579217e+03
2.066354e+03,4.538521e+03
2.076960e+03,4.504011e+03
2.087567e+03,4.454830e+03
2.098173e+03,4.420879e+03
2.108780e+03,4.365446e+03
2.119387e+03,4.318133e+03
2.129993e+03,4.240422e+03
2.140600e+03,4.186208e+03
2.151206e+03,4.192978e+03
2.161813e+03,4.150016e+03
2.172419e+03,4.063593e+03
2.183026e+03,4.032702e+03
2.193633e+03,3.989267e+03
2.204239e+03,3.945895e+03
2.214846e+03,3.902439e+03
2.225452e+03,3.845093e+03
2.236059e+03,3.809503e+03
2.246666e+03,3.774737e+03
2.257272e+03,3.718907e+03
2.267879e+03,3.689708e+03
2.278485e+03,3.648278e+03
2.289092e+03,3.588752e+03
2.299698e+03,3.571969e+03
2.310305e+03,3.496021e+03
2.320911e+03,3.485618e+03
2.331518e+03,3.438979e+03
2.342125e+03,3.415803e+03
2.352731e+03,3.373891e+03
2.363338e+03,3.327770e+03
2.373944e+03,3.300855e+03
2.384551e+03,3.270656e+03
2.395157e+03,3.204764e+03
2.405764e+03,3.180133e+03
2.416370e+03,3.144172e+03
2.426977e+03,3.100540e+03
2.437584e+03,3.066255e+03
2.448190e+03,3.029093e+03
2.458797e+03,2.994971e+03
2.469403e+03,2.988357e+03
2.480010e+03,2.950208e+03
2.490616e+03,2.909327e+03
2.501223e+03,2.904197e+03
2.511830e+03,2.863289e+03
2.522436e+03,2.808469e+03
2.533043e+03,2.804093e+03
2.543649e+03,2.767397e+03
2.554256e+03,2.741239e+03
2.564863e+03,2.724065e+03
2.575469e+03,2.700068e+03
2.586075e+03,2.672225e+03
2.596682e+03,2.632606e+03
2.607289e+03,2.617415e+03
2.617895e+03,2.600382e+03
2.628502e+03,2.578803e+03
2.639108e+03,2.528258e+03
2.649715e+03,2.540828e+03
2.660322e+03,2.479379e+03
2.670928e+03,2.468551e+03
2.681535e+03,2.449765e+03
2.692141e+03,2.434806e+03
2.702748e+03,2.434929e+03
2.713354e+03,2.392524e+03
2.723961e+03,2.390418e+03
2.734568e+03,2.359492e+03
2.745174e+03,2.356351e+03
2.755781e+03,2.327576e+03
2.766387e+03,2.299806e+03
2.776994e+03,2.285587e+03
2.787600e+03,2.261032e+03
2.798207e+03,2.219866e+03
2.808813e+03,2.225407e+03
2.819420e+03,2.211032e+03
2.830027e+03,2.191441e+03
2.840633e+03,2.176102e+03
2.851240e+03,2.192480e+03
2.861846e+03,2.158398e+03
2.872453e+03,2.178062e+03
2.883059e+03,2.202121e+03
2.893666e+03,2.134297e+03
2.904273e+03,2.112062e+03
2.914879e+03,2.092561e+03
2.925486e+03,2.084056e+03
2.936092e+03,2.028360e+03
2.946699e+03,2.056457e+03
2.957305e+03,2.091533e+03
2.967912e+03,2.003250e+03
2.978519e+03,1.993260e+03
2.989125e+03,2.654246e+03
2.999732e+03,1.933811e+03
3.010338e+03,1.979138e+03
3.020945e+03,1.937023e+03
3.031552e+03,1.959086e+03
3.042158e+03,1.922101e+03
3.052764e+03,1.893331e+03
3.063371e+03,1.880634e+03
3.073978e+03,1.916954e+03
3.084584e+03,1.839650e+03
3.095191e+03,1.852542e+03
3.105797e+03,1.832115e+03
3.116404e+03,1.865731e+03
3.127010e+03,1.840132e+03
3.137617e+03,1.881316e+03
3.148224e+03,1.854279e+03
3.158830e+03,1.864736e+03
3.169437e+03,1.868422e+03
3.180043e+03,1.870249e+03
3.190650e+03,1.828145e+03
3.200292e+03,1.934277e+03