File: RAMAN_data/20012023_r1/black fibre5.CSV
1.995979e+02,3.575572e+03
2.102045e+02,3.594443e+03
2.208110e+02,3.605113e+03
2.314176e+02,3.636583e+03
2.420242e+02,3.628860e+03
2.526307e+02,3.647469e+03
2.632373e+02,3.670182e+03
2.738439e+02,3.676448e+03
2.844504e+02,3.684475e+03
2.950570e+02,3.681314e+03
3.056636e+02,3.714521e+03
3.162701e+02,3.719924e+03
3.268767e+02,3.719566e+03
3.374833e+02,3.727715e+03
3.480898e+02,3.743685e+03
3.586964e+02,3.730408e+03
3.693030e+02,3.737697e+03
3.799095e+02,3.762723e+03
3.905161e+02,3.729901e+03
4.011227e+02,3.733439e+03
4.117292e+02,3.720969e+03
4.223358e+02,3.719786e+03
4.329424e+02,3.726405e+03
4.435490e+02,3.714463e+03
4.541555e+02,3.708089e+03
4.647621e+02,3.707214e+03
4.753687e+02,3.698414e+03
4.859752e+02,3.755802e+03
4.965818e+02,3.699336e+03
5.071884e+02,3.682287e+03
5.177949e+02,3.660126e+03
5.284015e+02,3.657034e+03
5.390081e+02,3.628234e+03
5.496146e+02,3.647529e+03
5.602212e+02,3.612364e+03
5.708278e+02,3.599402e+03
5.814343e+02,3.604762e+03
5.920409e+02,3.582114e+03
6.026475e+02,3.581139e+03
6.132540e+02,3.568403e+03
6.238606e+02,3.544439e+03
6.344672e+02,3.536047e+03
6.450737e+02,3.543093e+03
6.556803e+02,3.520445e+03
6.662869e+02,3.494745e+03
6.768934e+02,3.489903e+03
6.875000e+02,3.463839e+03
6.981066e+02,3.451356e+03
7.087131e+02,3.423906e+03
7.193197e+02,3.427437e+03
7.299263e+02,3.403993e+03
7.405328e+02,3.388236e+03
7.511394e+02,3.371723e+03
7.617460e+02,3.358278e+03
7.723525e+02,3.320908e+03
7.829591e+02,3.316588e+03
7.935657e+02,3.308590e+03
8.041722e+02,3.277919e+03
8.147788e+02,3.277651e+03
8.253854e+02,3.264022e+03
8.359919e+02,3.259220e+03
8.465985e+02,3.228904e+03
8.572051e+02,3.197940e+03
8.678116e+02,3.194624e+03
8.784182e+02,3.172712e+03
8.890248e+02,3.177188e+03
8.996313e+02,3.140736e+03
9.102379e+02,3.125004e+03
9.208445e+02,3.090729e+03
9.314510e+02,3.108753e+03
9.420576e+02,3.059806e+03
9.526642e+02,3.058563e+03
9.632708e+02,3.029512e+03
9.738773e+02,3.004792e+03
9.844839e+02,2.988888e+03
9.950905e+02,3.003562e+03
1.005697e+03,2.989129e+03
1.016304e+03,2.944130e+03
1.026910e+03,2.937703e+03
1.037517e+03,2.944776e+03
1.048123e+03,2.894926e+03
1.058730e+03,2.892955e+03
1.069336e+03,2.881728e+03
1.079943e+03,2.860715e+03
1.090550e+03,2.881137e+03
1.101156e+03,2.853012e+03
1.111763e+03,2.874468e+03
1.122369e+03,2.877421e+03
1.132976e+03,2.850038e+03
1.143582e+03,2.849491e+03
1.154189e+03,2.847944e+03
1.164796e+03,2.773677e+03
1.175402e+03,2.777261e+03
1.186009e+03,2.749679e+03
1.196615e+03,2.733073e+03
1.207222e+03,2.723950e+03
1.217828e+03,2.708453e+03
1.228435e+03,2.705306e+03
1.239042e+03,2.672218e+03
1.249648e+03,2.650744e+03
1.260255e+03,2.664558e+03
1.270861e+03,2.655878e+03
1.281468e+03,2.671157e+03
1.292074e+03,2.649514e+03
1.302681e+03,2.614442e+03
1.313287e+03,2.589479e+03
1.323894e+03,2.598765e+03
1.334501e+03,2.616843e+03
1.345107e+03,2.593035e+03
1.355714e+03,2.570677e+03
1.366320e+03,2.564406e+03
1.376927e+03,2.525677e+03
1.387533e+03,2.503654e+03
1.398140e+03,2.502761e+03
1.408747e+03,2.479341e+03
1.419353e+03,2.452032e+03
1.429960e+03,2.454897e+03
1.440566e+03,2.419976e+03
1.451173e+03,2.400164e+03
1.461779e+03,2.379949e+03
1.472386e+03,2.369495e+03
1.482993e+03,2.364819e+03
1.493599e+03,2.354872e+03
1.504206e+03,2.333982e+03
1.514812e+03,2.316678e+03
1.525419e+03,2.311882e+03
1.536025e+03,2.283772e+03
1.546632e+03,2.275445e+03
1.557239e+03,2.288168e+03
1.567845e+03,2.299944e+03
1.578452e+03,2.301544e+03
1.589058e+03,2.285001e+03
1.599665e+03,2.261597e+03
1.610271e+03,2.228293e+03
1.620878e+03,2.200437e+03
1.631484e+03,2.166731e+03
1.642091e+03,2.160835e+03
1.652698e+03,2.146749e+03
1.663304e+03,2.125989e+03
1.673911e+03,2.117107e+03
1.684517e+03,2.095449e+03
1.695124e+03,2.069661e+03
1.705730e+03,2.078399e+03
1.716337e+03,2.050649e+03
1.726944e+03,2.044305e+03
1.737550e+03,2.040583e+03
1.748157e+03,2.024439e+03
1.758763e+03,2.008057e+03
1.769370e+03,1.985198e+03
1.779976e+03,1.974432e+03
1.790583e+03,1.948853e+03
1.801190e+03,1.945519e+03
1.811796e+03,1.934476e+03
1.822403e+03,1.918751e+03
1.833009e+03,1.904076e+03
1.843616e+03,1.895009e+03
1.854222e+03,1.858115e+03
1.864829e+03,1.856165e+03
1.875436e+03,1.856580e+03
1.886042e+03,1.825961e+03
1.896649e+03,1.815004e+03
1.907255e+03,1.805707e+03
1.917862e+03,1.774155e+03
1.928468e+03,1.760754e+03
1.939075e+03,1.751424e+03
1.949682e+03,1.750378e+03
1.960288e+03,1.732326e+03
1.970895e+03,1.721223e+03
1.981501e+03,1.697298e+03
1.992108e+03,1.673491e+03
2.002714e+03,1.670650e+03
2.013321e+03,1.647349e+03
2.023927e+03,1.638609e+03
2.034534e+03,1.618360e+03
2.045141e+03,1.600651e+03
2.055747e+03,1.599623e+03
2.066354e+03,1.585867e+03
2.076960e+03,1.566057e+03
2.087567e+03,1.545625e+03
2.098173e+03,1.538734e+03
2.108780e+03,1.523798e+03
2.119387e+03,1.489475e+03
2.129993e+03,1.484859e+03
2.140600e+03,1.469226e+03
2.151206e+03,1.459127e+03
2.161813e+03,1.458689e+03
2.172419e+03,1.436086e+03
2.183026e+03,1.419507e+03
2.193633e+03,1.394650e+03
2.204239e+03,1.394773e+03
2.214846e+03,1.373775e+03
2.225452e+03,1.351157e+03
2.236059e+03,1.364588e+03
2.246666e+03,1.335021e+03
2.257272e+03,1.328148e+03
2.267879e+03,1.314385e+03
2.278485e+03,1.298949e+03
2.289092e+03,1.268058e+03
2.299698e+03,1.276259e+03
2.310305e+03,1.269234e+03
2.320911e+03,1.224012e+03
2.331518e+03,1.230001e+03
2.342125e+03,1.215858e+03
2.352731e+03,1.198514e+03
2.363338e+03,1.204035e+03
2.373944e+03,1.172147e+03
2.384551e+03,1.172341e+03
2.395157e+03,1.152401e+03
2.405764e+03,1.162006e+03
2.416370e+03,1.120992e+03
2.426977e+03,1.116277e+03
2.437584e+03,1.103426e+03
2.448190e+03,1.109054e+03
2.458797e+03,1.085797e+03
2.469403e+03,1.082176e+03
2.480010e+03,1.070475e+03
2.490616e+03,1.062023e+03
2.501223e+03,1.053628e+03
2.511830e+03,1.054370e+03
2.522436e+03,1.027309e+03
2.533043e+03,1.018325e+03
2.543649e+03,1.017824e+03
2.554256e+03,1.023927e+03
2.564863e+03,1.001615e+03
2.575469e+03,9.871125e+02
2.586075e+03,9.946619e+02
2.596682e+03,9.651381e+02
2.607289e+03,9.549869e+02
2.617895e+03,9.590527e+02
2.628502e+03,9.458829e+02
2.639108e+03,9.571053e+02
2.649715e+03,9.418449e+02
2.660322e+03,9.114308e+02
2.670928e+03,9.306342e+02
2.681535e+03,9.101988e+02
2.692141e+03,9.089190e+02
2.702748e+03,9.159159e+02
2.713354e+03,8.872386e+02
2.723961e+03,8.826758e+02
2.734568e+03,9.015162e+02
2.745174e+03,8.775696e+02
2.755781e+03,8.646889e+02
2.766387e+03,8.427516e+02
2.776994e+03,8.431930e+02
2.787600e+03,8.469420e+02
2.798207e+03,8.566822e+02
2.808813e+03,8.244997e+02
2.819420e+03,8.075406e+02
2.830027e+03,8.270128e+02
2.840633e+03,8.013998e+02
2.851240e+03,8.204817e+02
2.861846e+03,8.336265e+02
2.872453e+03,8.032925e+02
2.883059e+03,8.159257e+02
2.893666e+03,8.405837e+02
2.904273e+03,8.362550e+02
2.914879e+03,8.230448e+02
2.925486e+03,8.024006e+02
2.936092e+03,7.934612e+02
2.946699e+03,7.700623e+02
2.957305e+03,8.377178e+02
2.967912e+03,7.829070e+02
2.978519e+03,7.633023e+02
2.989125e+03,7.533487e+02
2.999732e+03,7.282231e+02
3.010338e+03,7.361819e+02
3.020945e+03,7.336223e+02
3.031552e+03,7.183290e+02
3.042158e+03,7.298630e+02
3.052764e+03,7.203392e+02
3.063371e+03,7.324290e+02
3.073978e+03,7.038053e+02
3.084584e+03,7.278642e+02
3.095191e+03,7.108366e+02
3.105797e+03,6.826981e+02
3.116404e+03,7.128556e+02
3.127010e+03,7.166846e+02
3.137617e+03,7.312058e+02
3.148224e+03,7.096143e+02
3.158830e+03,7.023656e+02
3.169437e+03,7.124440e+02
3.180043e+03,6.860803e+02
3.190650e+03,7.401404e+02
3.200292e+03,7.415574e+02