File: RAMAN_data/20012023_r1/black fibre4.CSV
1.995979e+02,4.914709e+03
2.102045e+02,4.954185e+03
2.208110e+02,4.970411e+03
2.314176e+02,4.972445e+03
2.420242e+02,4.980158e+03
2.526307e+02,5.025577e+03
2.632373e+02,5.025727e+03
2.738439e+02,5.057969e+03
2.844504e+02,5.077341e+03
2.950570e+02,5.060807e+03
3.056636e+02,5.077100e+03
3.162701e+02,5.072384e+03
3.268767e+02,5.102097e+03
3.374833e+02,5.086612e+03
3.480898e+02,5.099117e+03
3.586964e+02,5.116252e+03
3.693030e+02,5.091833e+03
3.799095e+02,5.123472e+03
3.905161e+02,5.114847e+03
4.011227e+02,5.079506e+03
4.117292e+02,5.085101e+03
4.223358e+02,5.082142e+03
4.329424e+02,5.081195e+03
4.435490e+02,5.075309e+03
4.541555e+02,5.057563e+03
4.647621e+02,5.041313e+03
4.753687e+02,5.039967e+03
4.859752e+02,5.067361e+03
4.965818e+02,5.036128e+03
5.071884e+02,5.012666e+03
5.177949e+02,5.011771e+03
5.284015e+02,4.980763e+03
5.390081e+02,4.964329e+03
5.496146e+02,4.954577e+03
5.602212e+02,4.950761e+03
5.708278e+02,4.878654e+03
5.814343e+02,4.913117e+03
5.920409e+02,4.886187e+03
6.026475e+02,4.863306e+03
6.132540e+02,4.862497e+03
6.238606e+02,4.836947e+03
6.344672e+02,4.803827e+03
6.450737e+02,4.781447e+03
6.556803e+02,4.779571e+03
6.662869e+02,4.759643e+03
6.768934e+02,4.721117e+03
6.875000e+02,4.694805e+03
6.981066e+02,4.688659e+03
7.087131e+02,4.666864e+03
7.193197e+02,4.655978e+03
7.299263e+02,4.607273e+03
7.405328e+02,4.587345e+03
7.511394e+02,4.573582e+03
7.617460e+02,4.541388e+03
7.723525e+02,4.516125e+03
7.829591e+02,4.499435e+03
7.935657e+02,4.469026e+03
8.041722e+02,4.455617e+03
8.147788e+02,4.442825e+03
8.253854e+02,4.421982e+03
8.359919e+02,4.402680e+03
8.465985e+02,4.362988e+03
8.572051e+02,4.353291e+03
8.678116e+02,4.319014e+03
8.784182e+02,4.311478e+03
8.890248e+02,4.294312e+03
8.996313e+02,4.248977e+03
9.102379e+02,4.262709e+03
9.208445e+02,4.204430e+03
9.314510e+02,4.179850e+03
9.420576e+02,4.168923e+03
9.526642e+02,4.135376e+03
9.632708e+02,4.118794e+03
9.738773e+02,4.090571e+03
9.844839e+02,4.068306e+03
9.950905e+02,4.048815e+03
1.005697e+03,4.028137e+03
1.016304e+03,3.991989e+03
1.026910e+03,3.973631e+03
1.037517e+03,3.966093e+03
1.048123e+03,3.921816e+03
1.058730e+03,3.909533e+03
1.069336e+03,3.906313e+03
1.079943e+03,3.879003e+03
1.090550e+03,3.913623e+03
1.101156e+03,3.870459e+03
1.111763e+03,3.873188e+03
1.122369e+03,3.854105e+03
1.132976e+03,3.845281e+03
1.143582e+03,3.821731e+03
1.154189e+03,3.823724e+03
1.164796e+03,3.764333e+03
1.175402e+03,3.731866e+03
1.186009e+03,3.717647e+03
1.196615e+03,3.707856e+03
1.207222e+03,3.682664e+03
1.217828e+03,3.682694e+03
1.228435e+03,3.653735e+03
1.239042e+03,3.642599e+03
1.249648e+03,3.601264e+03
1.260255e+03,3.584800e+03
1.270861e+03,3.604571e+03
1.281468e+03,3.617278e+03
1.292074e+03,3.568815e+03
1.302681e+03,3.535872e+03
1.313287e+03,3.513913e+03
1.323894e+03,3.520908e+03
1.334501e+03,3.530341e+03
1.345107e+03,3.500630e+03
1.355714e+03,3.472487e+03
1.366320e+03,3.462893e+03
1.376927e+03,3.412967e+03
1.387533e+03,3.395093e+03
1.398140e+03,3.378361e+03
1.408747e+03,3.350685e+03
1.419353e+03,3.328738e+03
1.429960e+03,3.317080e+03
1.440566e+03,3.264193e+03
1.451173e+03,3.261780e+03
1.461779e+03,3.261892e+03
1.472386e+03,3.222141e+03
1.482993e+03,3.212045e+03
1.493599e+03,3.207783e+03
1.504206e+03,3.181129e+03
1.514812e+03,3.161787e+03
1.525419e+03,3.157834e+03
1.536025e+03,3.129876e+03
1.546632e+03,3.114779e+03
1.557239e+03,3.094899e+03
1.567845e+03,3.124000e+03
1.578452e+03,3.108491e+03
1.589058e+03,3.081575e+03
1.599665e+03,3.047658e+03
1.610271e+03,3.008652e+03
1.620878e+03,2.976563e+03
1.631484e+03,2.952122e+03
1.642091e+03,2.942177e+03
1.652698e+03,2.922879e+03
1.663304e+03,2.878565e+03
1.673911e+03,2.897580e+03
1.684517e+03,2.845296e+03
1.695124e+03,2.844957e+03
1.705730e+03,2.835763e+03
1.716337e+03,2.788702e+03
1.726944e+03,2.777173e+03
1.737550e+03,2.772778e+03
1.748157e+03,2.717091e+03
1.758763e+03,2.716116e+03
1.769370e+03,2.701779e+03
1.779976e+03,2.681708e+03
1.790583e+03,2.642064e+03
1.801190e+03,2.637816e+03
1.811796e+03,2.631417e+03
1.822403e+03,2.592040e+03
1.833009e+03,2.573829e+03
1.843616e+03,2.572626e+03
1.854222e+03,2.532626e+03
1.864829e+03,2.513015e+03
1.875436e+03,2.508503e+03
1.886042e+03,2.483251e+03
1.896649e+03,2.464202e+03
1.907255e+03,2.462598e+03
1.917862e+03,2.377258e+03
1.928468e+03,2.377950e+03
1.939075e+03,2.355916e+03
1.949682e+03,2.348435e+03
1.960288e+03,2.332190e+03
1.970895e+03,2.307384e+03
1.981501e+03,2.285860e+03
1.992108e+03,2.256011e+03
2.002714e+03,2.237247e+03
2.013321e+03,2.239077e+03
2.023927e+03,2.200956e+03
2.034534e+03,2.186480e+03
2.045141e+03,2.171116e+03
2.055747e+03,2.139917e+03
2.066354e+03,2.122098e+03
2.076960e+03,2.115156e+03
2.087567e+03,2.067428e+03
2.098173e+03,2.064379e+03
2.108780e+03,2.048835e+03
2.119387e+03,2.012888e+03
2.129993e+03,2.000527e+03
2.140600e+03,1.979419e+03
2.151206e+03,1.967563e+03
2.161813e+03,1.947675e+03
2.172419e+03,1.923903e+03
2.183026e+03,1.900758e+03
2.193633e+03,1.883193e+03
2.204239e+03,1.858643e+03
2.214846e+03,1.856172e+03
2.225452e+03,1.803453e+03
2.236059e+03,1.787516e+03
2.246666e+03,1.774982e+03
2.257272e+03,1.747163e+03
2.267879e+03,1.740344e+03
2.278485e+03,1.729244e+03
2.289092e+03,1.693957e+03
2.299698e+03,1.691160e+03
2.310305e+03,1.690385e+03
2.320911e+03,1.649421e+03
2.331518e+03,1.639775e+03
2.342125e+03,1.617238e+03
2.352731e+03,1.596036e+03
2.363338e+03,1.585995e+03
2.373944e+03,1.567466e+03
2.384551e+03,1.557200e+03
2.395157e+03,1.528081e+03
2.405764e+03,1.529115e+03
2.416370e+03,1.516267e+03
2.426977e+03,1.491429e+03
2.437584e+03,1.469616e+03
2.448190e+03,1.480575e+03
2.458797e+03,1.452853e+03
2.469403e+03,1.424622e+03
2.480010e+03,1.414882e+03
2.490616e+03,1.414196e+03
2.501223e+03,1.403450e+03
2.511830e+03,1.393924e+03
2.522436e+03,1.374593e+03
2.533043e+03,1.381651e+03
2.543649e+03,1.353143e+03
2.554256e+03,1.358055e+03
2.564863e+03,1.330916e+03
2.575469e+03,1.339118e+03
2.586075e+03,1.302594e+03
2.596682e+03,1.297240e+03
2.607289e+03,1.265063e+03
2.617895e+03,1.274409e+03
2.628502e+03,1.251216e+03
2.639108e+03,1.240495e+03
2.649715e+03,1.222657e+03
2.660322e+03,1.219244e+03
2.670928e+03,1.236633e+03
2.681535e+03,1.196491e+03
2.692141e+03,1.205916e+03
2.702748e+03,1.187217e+03
2.713354e+03,1.180958e+03
2.723961e+03,1.183609e+03
2.734568e+03,1.164287e+03
2.745174e+03,1.144208e+03
2.755781e+03,1.142373e+03
2.766387e+03,1.136590e+03
2.776994e+03,1.122476e+03
2.787600e+03,1.113226e+03
2.798207e+03,1.110658e+03
2.808813e+03,1.091703e+03
2.819420e+03,1.088043e+03
2.830027e+03,1.079881e+03
2.840633e+03,1.085004e+03
2.851240e+03,1.066857e+03
2.861846e+03,1.071205e+03
2.872453e+03,1.062715e+03
2.883059e+03,1.069308e+03
2.893666e+03,1.071348e+03
2.904273e+03,1.065583e+03
2.914879e+03,1.072860e+03
2.925486e+03,1.037679e+03
2.936092e+03,1.044557e+03
2.946699e+03,1.041292e+03
2.957305e+03,1.048696e+03
2.967912e+03,9.864536e+02
2.978519e+03,1.000024e+03
2.989125e+03,9.747617e+02
2.999732e+03,9.440720e+02
3.010338e+03,9.725094e+02
3.020945e+03,9.821390e+02
3.031552e+03,9.628790e+02
3.042158e+03,9.938834e+02
3.052764e+03,9.567217e+02
3.063371e+03,9.769922e+02
3.073978e+03,9.687458e+02
3.084584e+03,9.617720e+02
3.095191e+03,9.492971e+02
3.105797e+03,9.307222e+02
3.116404e+03,9.654186e+02
3.127010e+03,9.448340e+02
3.137617e+03,9.373488e+02
3.148224e+03,9.557198e+02
3.158830e+03,9.384603e+02
3.169437e+03,9.408317e+02
3.180043e+03,9.074738e+02
3.190650e+03,9.827880e+02
3.200292e+03,9.993770e+02