File: RAMAN_data/20012023_r1/black fibre8.CSV
1.995979e+02,5.302400e+03
2.102045e+02,5.328888e+03
2.208110e+02,5.378547e+03
2.314176e+02,5.371576e+03
2.420242e+02,5.400825e+03
2.526307e+02,5.426791e+03
2.632373e+02,5.419602e+03
2.738439e+02,5.435620e+03
2.844504e+02,5.441735e+03
2.950570e+02,5.470195e+03
3.056636e+02,5.440647e+03
3.162701e+02,5.468351e+03
3.268767e+02,5.478016e+03
3.374833e+02,5.469750e+03
3.480898e+02,5.468713e+03
3.586964e+02,5.501121e+03
3.693030e+02,5.487360e+03
3.799095e+02,5.502989e+03
3.905161e+02,5.487402e+03
4.011227e+02,5.464485e+03
4.117292e+02,5.472604e+03
4.223358e+02,5.460086e+03
4.329424e+02,5.462440e+03
4.435490e+02,5.447834e+03
4.541555e+02,5.452475e+03
4.647621e+02,5.418865e+03
4.753687e+02,5.397245e+03
4.859752e+02,5.402563e+03
4.965818e+02,5.381456e+03
5.071884e+02,5.363031e+03
5.177949e+02,5.366537e+03
5.284015e+02,5.292032e+03
5.390081e+02,5.284691e+03
5.496146e+02,5.264960e+03
5.602212e+02,5.246125e+03
5.708278e+02,5.232095e+03
5.814343e+02,5.231177e+03
5.920409e+02,5.193771e+03
6.026475e+02,5.201360e+03
6.132540e+02,5.150888e+03
6.238606e+02,5.140125e+03
6.344672e+02,5.093628e+03
6.450737e+02,5.067901e+03
6.556803e+02,5.061775e+03
6.662869e+02,5.015342e+03
6.768934e+02,5.011800e+03
6.875000e+02,4.971219e+03
6.981066e+02,4.967329e+03
7.087131e+02,4.922954e+03
7.193197e+02,4.899151e+03
7.299263e+02,4.865028e+03
7.405328e+02,4.837014e+03
7.511394e+02,4.780600e+03
7.617460e+02,4.790227e+03
7.723525e+02,4.756594e+03
7.829591e+02,4.721085e+03
7.935657e+02,4.716755e+03
8.041722e+02,4.674310e+03
8.147788e+02,4.637006e+03
8.253854e+02,4.638072e+03
8.359919e+02,4.607951e+03
8.465985e+02,4.562252e+03
8.572051e+02,4.529666e+03
8.678116e+02,4.518248e+03
8.784182e+02,4.478150e+03
8.890248e+02,4.465980e+03
8.996313e+02,4.441783e+03
9.102379e+02,4.397167e+03
9.208445e+02,4.355007e+03
9.314510e+02,4.337152e+03
9.420576e+02,4.303323e+03
9.526642e+02,4.278697e+03
9.632708e+02,4.254211e+03
9.738773e+02,4.231705e+03
9.844839e+02,4.199130e+03
9.950905e+02,4.190302e+03
1.005697e+03,4.165930e+03
1.016304e+03,4.121393e+03
1.026910e+03,4.104171e+03
1.037517e+03,4.079782e+03
1.048123e+03,4.052143e+03
1.058730e+03,4.035688e+03
1.069336e+03,4.010466e+03
1.079943e+03,3.997570e+03
1.090550e+03,4.016736e+03
1.101156e+03,3.961851e+03
1.111763e+03,3.971655e+03
1.122369e+03,3.965094e+03
1.132976e+03,3.923499e+03
1.143582e+03,3.907372e+03
1.154189e+03,3.891323e+03
1.164796e+03,3.842284e+03
1.175402e+03,3.816232e+03
1.186009e+03,3.796298e+03
1.196615e+03,3.766073e+03
1.207222e+03,3.760103e+03
1.217828e+03,3.750861e+03
1.228435e+03,3.722313e+03
1.239042e+03,3.698177e+03
1.249648e+03,3.645800e+03
1.260255e+03,3.638839e+03
1.270861e+03,3.646825e+03
1.281468e+03,3.644872e+03
1.292074e+03,3.608041e+03
1.302681e+03,3.595196e+03
1.313287e+03,3.577740e+03
1.323894e+03,3.544352e+03
1.334501e+03,3.565689e+03
1.345107e+03,3.535414e+03
1.355714e+03,3.517307e+03
1.366320e+03,3.482527e+03
1.376927e+03,3.448780e+03
1.387533e+03,3.404181e+03
1.398140e+03,3.408144e+03
1.408747e+03,3.381489e+03
1.419353e+03,3.372698e+03
1.429960e+03,3.339303e+03
1.440566e+03,3.296425e+03
1.451173e+03,3.280488e+03
1.461779e+03,3.280610e+03
1.472386e+03,3.236274e+03
1.482993e+03,3.231471e+03
1.493599e+03,3.215522e+03
1.504206e+03,3.185742e+03
1.514812e+03,3.147075e+03
1.525419e+03,3.157340e+03
1.536025e+03,3.125966e+03
1.546632e+03,3.105918e+03
1.557239e+03,3.118897e+03
1.567845e+03,3.096905e+03
1.578452e+03,3.087070e+03
1.589058e+03,3.085748e+03
1.599665e+03,3.031645e+03
1.610271e+03,3.007785e+03
1.620878e+03,2.982567e+03
1.631484e+03,2.937568e+03
1.642091e+03,2.927612e+03
1.652698e+03,2.903491e+03
1.663304e+03,2.870786e+03
1.673911e+03,2.868930e+03
1.684517e+03,2.834874e+03
1.695124e+03,2.823120e+03
1.705730e+03,2.801932e+03
1.716337e+03,2.775155e+03
1.726944e+03,2.744639e+03
1.737550e+03,2.762359e+03
1.748157e+03,2.714323e+03
1.758763e+03,2.705651e+03
1.769370e+03,2.685787e+03
1.779976e+03,2.667353e+03
1.790583e+03,2.638570e+03
1.801190e+03,2.626758e+03
1.811796e+03,2.603946e+03
1.822403e+03,2.595919e+03
1.833009e+03,2.558212e+03
1.843616e+03,2.535947e+03
1.854222e+03,2.512987e+03
1.864829e+03,2.508604e+03
1.875436e+03,2.455094e+03
1.886042e+03,2.458333e+03
1.896649e+03,2.416846e+03
1.907255e+03,2.408617e+03
1.917862e+03,2.382141e+03
1.928468e+03,2.374309e+03
1.939075e+03,2.347837e+03
1.949682e+03,2.316600e+03
1.960288e+03,2.296304e+03
1.970895e+03,2.297890e+03
1.981501e+03,2.245351e+03
1.992108e+03,2.229987e+03
2.002714e+03,2.233563e+03
2.013321e+03,2.181876e+03
2.023927e+03,2.171791e+03
2.034534e+03,2.178391e+03
2.045141e+03,2.115977e+03
2.055747e+03,2.106390e+03
2.066354e+03,2.116034e+03
2.076960e+03,2.077131e+03
2.087567e+03,2.049044e+03
2.098173e+03,2.031389e+03
2.108780e+03,2.025206e+03
2.119387e+03,1.986681e+03
2.129993e+03,1.956518e+03
2.140600e+03,1.944404e+03
2.151206e+03,1.929207e+03
2.161813e+03,1.912553e+03
2.172419e+03,1.860676e+03
2.183026e+03,1.863464e+03
2.193633e+03,1.841993e+03
2.204239e+03,1.823838e+03
2.214846e+03,1.803588e+03
2.225452e+03,1.776011e+03
2.236059e+03,1.765524e+03
2.246666e+03,1.737400e+03
2.257272e+03,1.738744e+03
2.267879e+03,1.704134e+03
2.278485e+03,1.676381e+03
2.289092e+03,1.639187e+03
2.299698e+03,1.656747e+03
2.310305e+03,1.630916e+03
2.320911e+03,1.624032e+03
2.331518e+03,1.607498e+03
2.342125e+03,1.576475e+03
2.352731e+03,1.546789e+03
2.363338e+03,1.545594e+03
2.373944e+03,1.528475e+03
2.384551e+03,1.504990e+03
2.395157e+03,1.470244e+03
2.405764e+03,1.479344e+03
2.416370e+03,1.451786e+03
2.426977e+03,1.438647e+03
2.437584e+03,1.431390e+03
2.448190e+03,1.415612e+03
2.458797e+03,1.389547e+03
2.469403e+03,1.391733e+03
2.480010e+03,1.379519e+03
2.490616e+03,1.369347e+03
2.501223e+03,1.334622e+03
2.511830e+03,1.338368e+03
2.522436e+03,1.328155e+03
2.533043e+03,1.324551e+03
2.543649e+03,1.302237e+03
2.554256e+03,1.301609e+03
2.564863e+03,1.269756e+03
2.575469e+03,1.280068e+03
2.586075e+03,1.238971e+03
2.596682e+03,1.238582e+03
2.607289e+03,1.215225e+03
2.617895e+03,1.215232e+03
2.628502e+03,1.187401e+03
2.639108e+03,1.199942e+03
2.649715e+03,1.172141e+03
2.660322e+03,1.161090e+03
2.670928e+03,1.160067e+03
2.681535e+03,1.146385e+03
2.692141e+03,1.126089e+03
2.702748e+03,1.138328e+03
2.713354e+03,1.116024e+03
2.723961e+03,1.116359e+03
2.734568e+03,1.130382e+03
2.745174e+03,1.085427e+03
2.755781e+03,1.086061e+03
2.766387e+03,1.065223e+03
2.776994e+03,1.079243e+03
2.787600e+03,1.054609e+03
2.798207e+03,1.053056e+03
2.808813e+03,1.063223e+03
2.819420e+03,1.048113e+03
2.830027e+03,1.027953e+03
2.840633e+03,1.032210e+03
2.851240e+03,1.047713e+03
2.861846e+03,1.040127e+03
2.872453e+03,1.035996e+03
2.883059e+03,1.026885e+03
2.893666e+03,1.035417e+03
2.904273e+03,1.023564e+03
2.914879e+03,1.017934e+03
2.925486e+03,1.001168e+03
2.936092e+03,9.945056e+02
2.946699e+03,9.937711e+02
2.957305e+03,9.980659e+02
2.967912e+03,9.467366e+02
2.978519e+03,9.515592e+02
2.989125e+03,9.321481e+02
2.999732e+03,9.445189e+02
3.010338e+03,9.593777e+02
3.020945e+03,8.973615e+02
3.031552e+03,9.239648e+02
3.042158e+03,8.977109e+02
3.052764e+03,8.772206e+02
3.063371e+03,8.896706e+02
3.073978e+03,9.179379e+02
3.084584e+03,8.887719e+02
3.095191e+03,8.941349e+02
3.105797e+03,8.839544e+02
3.116404e+03,8.783243e+02
3.127010e+03,8.989538e+02
3.137617e+03,9.067631e+02
3.148224e+03,8.976791e+02
3.158830e+03,8.971072e+02
3.169437e+03,9.043613e+02
3.180043e+03,8.849854e+02
3.190650e+03,8.958680e+02
3.200292e+03,9.459061e+02