File: RAMAN_data/20012023_r1/black fibre3.CSV
1.995979e+02,1.026432e+04
2.102045e+02,1.036013e+04
2.208110e+02,1.052872e+04
2.314176e+02,1.067503e+04
2.420242e+02,1.076115e+04
2.526307e+02,1.094704e+04
2.632373e+02,1.105562e+04
2.738439e+02,1.115154e+04
2.844504e+02,1.128402e+04
2.950570e+02,1.137532e+04
3.056636e+02,1.147431e+04
3.162701e+02,1.159601e+04
3.268767e+02,1.171076e+04
3.374833e+02,1.180645e+04
3.480898e+02,1.195068e+04
3.586964e+02,1.206371e+04
3.693030e+02,1.216473e+04
3.799095e+02,1.228242e+04
3.905161e+02,1.237428e+04
4.011227e+02,1.243199e+04
4.117292e+02,1.255884e+04
4.223358e+02,1.262328e+04
4.329424e+02,1.266212e+04
4.435490e+02,1.275100e+04
4.541555e+02,1.284384e+04
4.647621e+02,1.291040e+04
4.753687e+02,1.293940e+04
4.859752e+02,1.303736e+04
4.965818e+02,1.309168e+04
5.071884e+02,1.318566e+04
5.177949e+02,1.325831e+04
5.284015e+02,1.330998e+04
5.390081e+02,1.347386e+04
5.496146e+02,1.365459e+04
5.602212e+02,1.377864e+04
5.708278e+02,1.353469e+04
5.814343e+02,1.353956e+04
5.920409e+02,1.363515e+04
6.026475e+02,1.366392e+04
6.132540e+02,1.383928e+04
6.238606e+02,1.367553e+04
6.344672e+02,1.364492e+04
6.450737e+02,1.364708e+04
6.556803e+02,1.368158e+04
6.662869e+02,1.366366e+04
6.768934e+02,1.367682e+04
6.875000e+02,1.367814e+04
6.981066e+02,1.362358e+04
7.087131e+02,1.364804e+04
7.193197e+02,1.361580e+04
7.299263e+02,1.356953e+04
7.405328e+02,1.356319e+04
7.511394e+02,1.353547e+04
7.617460e+02,1.359679e+04
7.723525e+02,1.353778e+04
7.829591e+02,1.363209e+04
7.935657e+02,1.361021e+04
8.041722e+02,1.341939e+04
8.147788e+02,1.337099e+04
8.253854e+02,1.334638e+04
8.359919e+02,1.333378e+04
8.465985e+02,1.324722e+04
8.572051e+02,1.323616e+04
8.678116e+02,1.318100e+04
8.784182e+02,1.310226e+04
8.890248e+02,1.305957e+04
8.996313e+02,1.302926e+04
9.102379e+02,1.293850e+04
9.208445e+02,1.282514e+04
9.314510e+02,1.281390e+04
9.420576e+02,1.275829e+04
9.526642e+02,1.267108e+04
9.632708e+02,1.264444e+04
9.738773e+02,1.249328e+04
9.844839e+02,1.238195e+04
9.950905e+02,1.240108e+04
1.005697e+03,1.230354e+04
1.016304e+03,1.224285e+04
1.026910e+03,1.218042e+04
1.037517e+03,1.213293e+04
1.048123e+03,1.200918e+04
1.058730e+03,1.197491e+04
1.069336e+03,1.200300e+04
1.079943e+03,1.195571e+04
1.090550e+03,1.186569e+04
1.101156e+03,1.171417e+04
1.111763e+03,1.163390e+04
1.122369e+03,1.158177e+04
1.132976e+03,1.150258e+04
1.143582e+03,1.143090e+04
1.154189e+03,1.132814e+04
1.164796e+03,1.127752e+04
1.175402e+03,1.120026e+04
1.186009e+03,1.115048e+04
1.196615e+03,1.113692e+04
1.207222e+03,1.094196e+04
1.217828e+03,1.090312e+04
1.228435e+03,1.085356e+04
1.239042e+03,1.077976e+04
1.249648e+03,1.065094e+04
1.260255e+03,1.057017e+04
1.270861e+03,1.049217e+04
1.281468e+03,1.037623e+04
1.292074e+03,1.034906e+04
1.302681e+03,1.027658e+04
1.313287e+03,1.023396e+04
1.323894e+03,1.017503e+04
1.334501e+03,1.012037e+04
1.345107e+03,9.994204e+03
1.355714e+03,9.944479e+03
1.366320e+03,9.908504e+03
1.376927e+03,9.755608e+03
1.387533e+03,9.737860e+03
1.398140e+03,9.687587e+03
1.408747e+03,9.572828e+03
1.419353e+03,9.530627e+03
1.429960e+03,9.462588e+03
1.440566e+03,9.418594e+03
1.451173e+03,9.420694e+03
1.461779e+03,9.323589e+03
1.472386e+03,9.208004e+03
1.482993e+03,9.174343e+03
1.493599e+03,9.100767e+03
1.504206e+03,9.107909e+03
1.514812e+03,9.056458e+03
1.525419e+03,8.961941e+03
1.536025e+03,8.842967e+03
1.546632e+03,8.805871e+03
1.557239e+03,8.801775e+03
1.567845e+03,8.985522e+03
1.578452e+03,8.868712e+03
1.589058e+03,8.645118e+03
1.599665e+03,8.557393e+03
1.610271e+03,8.467088e+03
1.620878e+03,8.400624e+03
1.631484e+03,8.403013e+03
1.642091e+03,8.269534e+03
1.652698e+03,8.193388e+03
1.663304e+03,8.107009e+03
1.673911e+03,8.135889e+03
1.684517e+03,8.020122e+03
1.695124e+03,7.908591e+03
1.705730e+03,7.880542e+03
1.716337e+03,7.802369e+03
1.726944e+03,7.762818e+03
1.737550e+03,7.689317e+03
1.748157e+03,7.631560e+03
1.758763e+03,7.537986e+03
1.769370e+03,7.495242e+03
1.779976e+03,7.460959e+03
1.790583e+03,7.361422e+03
1.801190e+03,7.350781e+03
1.811796e+03,7.291364e+03
1.822403e+03,7.234930e+03
1.833009e+03,7.167423e+03
1.843616e+03,7.140307e+03
1.854222e+03,7.037037e+03
1.864829e+03,6.985761e+03
1.875436e+03,6.984663e+03
1.886042e+03,6.886993e+03
1.896649e+03,6.792010e+03
1.907255e+03,6.734564e+03
1.917862e+03,6.680649e+03
1.928468e+03,6.650750e+03
1.939075e+03,6.606240e+03
1.949682e+03,6.502472e+03
1.960288e+03,6.460630e+03
1.970895e+03,6.429386e+03
1.981501e+03,6.333532e+03
1.992108e+03,6.274174e+03
2.002714e+03,6.230851e+03
2.013321e+03,6.130151e+03
2.023927e+03,6.067489e+03
2.034534e+03,6.026577e+03
2.045141e+03,5.950581e+03
2.055747e+03,5.893880e+03
2.066354e+03,5.856692e+03
2.076960e+03,5.792338e+03
2.087567e+03,5.747691e+03
2.098173e+03,5.654115e+03
2.108780e+03,5.617290e+03
2.119387e+03,5.534925e+03
2.129993e+03,5.472485e+03
2.140600e+03,5.435924e+03
2.151206e+03,5.388524e+03
2.161813e+03,5.348181e+03
2.172419e+03,5.255873e+03
2.183026e+03,5.163061e+03
2.193633e+03,5.103331e+03
2.204239e+03,5.083884e+03
2.214846e+03,5.026934e+03
2.225452e+03,4.954846e+03
2.236059e+03,4.917297e+03
2.246666e+03,4.847450e+03
2.257272e+03,4.774035e+03
2.267879e+03,4.732304e+03
2.278485e+03,4.653438e+03
2.289092e+03,4.613067e+03
2.299698e+03,4.583251e+03
2.310305e+03,4.508853e+03
2.320911e+03,4.441712e+03
2.331518e+03,4.412751e+03
2.342125e+03,4.333451e+03
2.352731e+03,4.286164e+03
2.363338e+03,4.303399e+03
2.373944e+03,4.228268e+03
2.384551e+03,4.130867e+03
2.395157e+03,4.120437e+03
2.405764e+03,4.043730e+03
2.416370e+03,3.992580e+03
2.426977e+03,3.914381e+03
2.437584e+03,3.928142e+03
2.448190e+03,3.863408e+03
2.458797e+03,3.801984e+03
2.469403e+03,3.757516e+03
2.480010e+03,3.716996e+03
2.490616e+03,3.685641e+03
2.501223e+03,3.640461e+03
2.511830e+03,3.617869e+03
2.522436e+03,3.550620e+03
2.533043e+03,3.521985e+03
2.543649e+03,3.477129e+03
2.554256e+03,3.458450e+03
2.564863e+03,3.426800e+03
2.575469e+03,3.382903e+03
2.586075e+03,3.329940e+03
2.596682e+03,3.310420e+03
2.607289e+03,3.270698e+03
2.617895e+03,3.202430e+03
2.628502e+03,3.163633e+03
2.639108e+03,3.166462e+03
2.649715e+03,3.127452e+03
2.660322e+03,3.078905e+03
2.670928e+03,3.040489e+03
2.681535e+03,3.051865e+03
2.692141e+03,3.004333e+03
2.702748e+03,2.998695e+03
2.713354e+03,2.937250e+03
2.723961e+03,2.889207e+03
2.734568e+03,2.912035e+03
2.745174e+03,2.861136e+03
2.755781e+03,2.816135e+03
2.766387e+03,2.794391e+03
2.776994e+03,2.796539e+03
2.787600e+03,2.725793e+03
2.798207e+03,2.730654e+03
2.808813e+03,2.691620e+03
2.819420e+03,2.675116e+03
2.830027e+03,2.634641e+03
2.840633e+03,2.599617e+03
2.851240e+03,2.574816e+03
2.861846e+03,2.601153e+03
2.872453e+03,2.543134e+03
2.883059e+03,2.538418e+03
2.893666e+03,2.568006e+03
2.904273e+03,2.492563e+03
2.914879e+03,2.447126e+03
2.925486e+03,2.413907e+03
2.936092e+03,2.410517e+03
2.946699e+03,2.436343e+03
2.957305e+03,2.427504e+03
2.967912e+03,2.347209e+03
2.978519e+03,2.352827e+03
2.989125e+03,2.239600e+03
2.999732e+03,2.315842e+03
3.010338e+03,2.322503e+03
3.020945e+03,2.314496e+03
3.031552e+03,2.234140e+03
3.042158e+03,2.191250e+03
3.052764e+03,2.213213e+03
3.063371e+03,2.233939e+03
3.073978e+03,2.218380e+03
3.084584e+03,2.210155e+03
3.095191e+03,2.235880e+03
3.105797e+03,2.144455e+03
3.116404e+03,2.206390e+03
3.127010e+03,2.167632e+03
3.137617e+03,2.160005e+03
3.148224e+03,2.183504e+03
3.158830e+03,2.162885e+03
3.169437e+03,2.151265e+03
3.180043e+03,2.152856e+03
3.190650e+03,2.175233e+03
3.200292e+03,2.200102e+03