File: RAMAN_data/20012023_r1/blue frag3.CSV
1.995979e+02,1.046964e+04
2.102045e+02,1.054658e+04
2.208110e+02,1.066058e+04
2.314176e+02,1.075159e+04
2.420242e+02,1.083454e+04
2.526307e+02,1.095972e+04
2.632373e+02,1.105562e+04
2.738439e+02,1.115154e+04
2.844504e+02,1.128402e+04
2.950570e+02,1.137532e+04
3.056636e+02,1.147431e+04
3.162701e+02,1.159601e+04
3.268767e+02,1.171076e+04
3.374833e+02,1.180784e+04
3.480898e+02,1.197636e+04
3.586964e+02,1.211193e+04
3.693030e+02,1.219936e+04
3.799095e+02,1.235504e+04
3.905161e+02,1.250335e+04
4.011227e+02,1.260206e+04
4.117292e+02,1.269522e+04
4.223358e+02,1.278883e+04
4.329424e+02,1.281531e+04
4.435490e+02,1.289537e+04
4.541555e+02,1.289746e+04
4.647621e+02,1.288579e+04
4.753687e+02,1.297669e+04
4.859752e+02,1.290003e+04
4.965818e+02,1.292067e+04
5.071884e+02,1.286212e+04
5.177949e+02,1.285208e+04
5.284015e+02,1.281203e+04
5.390081e+02,1.276965e+04
5.496146e+02,1.279911e+04
5.602212e+02,1.279995e+04
5.708278e+02,1.275265e+04
5.814343e+02,1.282162e+04
5.920409e+02,1.289678e+04
6.026475e+02,1.269868e+04
6.132540e+02,1.260406e+04
6.238606e+02,1.259779e+04
6.344672e+02,1.254713e+04
6.450737e+02,1.247951e+04
6.556803e+02,1.242319e+04
6.662869e+02,1.242977e+04
6.768934e+02,1.339169e+04
6.875000e+02,1.234834e+04
6.981066e+02,1.233573e+04
7.087131e+02,1.225924e+04
7.193197e+02,1.212676e+04
7.299263e+02,1.196620e+04
7.405328e+02,1.248068e+04
7.511394e+02,1.204022e+04
7.617460e+02,1.173313e+04
7.723525e+02,1.168533e+04
7.829591e+02,1.153760e+04
7.935657e+02,1.140563e+04
8.041722e+02,1.131325e+04
8.147788e+02,1.123839e+04
8.253854e+02,1.126740e+04
8.359919e+02,1.124986e+04
8.465985e+02,1.109168e+04
8.572051e+02,1.094347e+04
8.678116e+02,1.084150e+04
8.784182e+02,1.078083e+04
8.890248e+02,1.063751e+04
8.996313e+02,1.051000e+04
9.102379e+02,1.038441e+04
9.208445e+02,1.033975e+04
9.314510e+02,1.024737e+04
9.420576e+02,1.017895e+04
9.526642e+02,1.014577e+04
9.632708e+02,1.003307e+04
9.738773e+02,9.920425e+03
9.844839e+02,9.818872e+03
9.950905e+02,9.765111e+03
1.005697e+03,9.729009e+03
1.016304e+03,9.593030e+03
1.026910e+03,9.524577e+03
1.037517e+03,9.470801e+03
1.048123e+03,9.383811e+03
1.058730e+03,9.334123e+03
1.069336e+03,9.241488e+03
1.079943e+03,9.171096e+03
1.090550e+03,9.135611e+03
1.101156e+03,9.147703e+03
1.111763e+03,9.050374e+03
1.122369e+03,9.012334e+03
1.132976e+03,9.188427e+03
1.143582e+03,9.415316e+03
1.154189e+03,8.815770e+03
1.164796e+03,8.717377e+03
1.175402e+03,8.674154e+03
1.186009e+03,8.659954e+03
1.196615e+03,8.622862e+03
1.207222e+03,8.513814e+03
1.217828e+03,8.424104e+03
1.228435e+03,8.311574e+03
1.239042e+03,8.212889e+03
1.249648e+03,8.138792e+03
1.260255e+03,8.127912e+03
1.270861e+03,8.077455e+03
1.281468e+03,8.013821e+03
1.292074e+03,8.012463e+03
1.302681e+03,8.048948e+03
1.313287e+03,7.913205e+03
1.323894e+03,8.053911e+03
1.334501e+03,8.959732e+03
1.345107e+03,7.921093e+03
1.355714e+03,7.670127e+03
1.366320e+03,7.543436e+03
1.376927e+03,7.442852e+03
1.387533e+03,7.350357e+03
1.398140e+03,7.299622e+03
1.408747e+03,7.260880e+03
1.419353e+03,7.228273e+03
1.429960e+03,7.160750e+03
1.440566e+03,7.399475e+03
1.451173e+03,7.155100e+03
1.461779e+03,6.987915e+03
1.472386e+03,6.869167e+03
1.482993e+03,6.807664e+03
1.493599e+03,6.746661e+03
1.504206e+03,6.791511e+03
1.514812e+03,7.601464e+03
1.525419e+03,8.762705e+03
1.536025e+03,6.812885e+03
1.546632e+03,6.431866e+03
1.557239e+03,6.270042e+03
1.567845e+03,6.157635e+03
1.578452e+03,6.123654e+03
1.589058e+03,6.021077e+03
1.599665e+03,5.909526e+03
1.610271e+03,5.809083e+03
1.620878e+03,5.687532e+03
1.631484e+03,5.618423e+03
1.642091e+03,5.477369e+03
1.652698e+03,5.403838e+03
1.663304e+03,5.308186e+03
1.673911e+03,5.226664e+03
1.684517e+03,5.137468e+03
1.695124e+03,5.068602e+03
1.705730e+03,5.001917e+03
1.716337e+03,4.876107e+03
1.726944e+03,4.788103e+03
1.737550e+03,4.729482e+03
1.748157e+03,4.665954e+03
1.758763e+03,4.567811e+03
1.769370e+03,4.514648e+03
1.779976e+03,4.459651e+03
1.790583e+03,4.337775e+03
1.801190e+03,4.264563e+03
1.811796e+03,4.234973e+03
1.822403e+03,4.156730e+03
1.833009e+03,4.119790e+03
1.843616e+03,4.037522e+03
1.854222e+03,3.955515e+03
1.864829e+03,3.919154e+03
1.875436e+03,3.835951e+03
1.886042e+03,3.794383e+03
1.896649e+03,3.719490e+03
1.907255e+03,3.670709e+03
1.917862e+03,3.595729e+03
1.928468e+03,3.562339e+03
1.939075e+03,3.521560e+03
1.949682e+03,3.451899e+03
1.960288e+03,3.397675e+03
1.970895e+03,3.331531e+03
1.981501e+03,3.291747e+03
1.992108e+03,3.252231e+03
2.002714e+03,3.212699e+03
2.013321e+03,3.147532e+03
2.023927e+03,3.097643e+03
2.034534e+03,3.045528e+03
2.045141e+03,3.001521e+03
2.055747e+03,2.952290e+03
2.066354e+03,2.921610e+03
2.076960e+03,2.889906e+03
2.087567e+03,2.866291e+03
2.098173e+03,2.820357e+03
2.108780e+03,2.770840e+03
2.119387e+03,2.710480e+03
2.129993e+03,2.675133e+03
2.140600e+03,2.644508e+03
2.151206e+03,2.602348e+03
2.161813e+03,2.585958e+03
2.172419e+03,2.551172e+03
2.183026e+03,2.494906e+03
2.193633e+03,2.454463e+03
2.204239e+03,2.465476e+03
2.214846e+03,2.404006e+03
2.225452e+03,2.358139e+03
2.236059e+03,2.338152e+03
2.246666e+03,2.297183e+03
2.257272e+03,2.281105e+03
2.267879e+03,2.277156e+03
2.278485e+03,2.210635e+03
2.289092e+03,2.185339e+03
2.299698e+03,2.162089e+03
2.310305e+03,2.132236e+03
2.320911e+03,2.118334e+03
2.331518e+03,2.065634e+03
2.342125e+03,2.048610e+03
2.352731e+03,2.014693e+03
2.363338e+03,2.003133e+03
2.373944e+03,1.992069e+03
2.384551e+03,1.972350e+03
2.395157e+03,1.937489e+03
2.405764e+03,1.913194e+03
2.416370e+03,1.916582e+03
2.426977e+03,1.900821e+03
2.437584e+03,1.863373e+03
2.448190e+03,1.853824e+03
2.458797e+03,1.837807e+03
2.469403e+03,1.813590e+03
2.480010e+03,1.825628e+03
2.490616e+03,1.768510e+03
2.501223e+03,1.772443e+03
2.511830e+03,1.777071e+03
2.522436e+03,1.745930e+03
2.533043e+03,1.742376e+03
2.543649e+03,1.733820e+03
2.554256e+03,1.734874e+03
2.564863e+03,1.720111e+03
2.575469e+03,1.730319e+03
2.586075e+03,1.711331e+03
2.596682e+03,1.723220e+03
2.607289e+03,1.695628e+03
2.617895e+03,1.692478e+03
2.628502e+03,1.682051e+03
2.639108e+03,1.701628e+03
2.649715e+03,1.670578e+03
2.660322e+03,1.694620e+03
2.670928e+03,1.690390e+03
2.681535e+03,1.668684e+03
2.692141e+03,1.679368e+03
2.702748e+03,1.681433e+03
2.713354e+03,1.704205e+03
2.723961e+03,1.688348e+03
2.734568e+03,1.696078e+03
2.745174e+03,1.690052e+03
2.755781e+03,1.686507e+03
2.766387e+03,1.706400e+03
2.776994e+03,1.708146e+03
2.787600e+03,1.726115e+03
2.798207e+03,1.757574e+03
2.808813e+03,1.720511e+03
2.819420e+03,1.773092e+03
2.830027e+03,1.780504e+03
2.840633e+03,1.783366e+03
2.851240e+03,1.827346e+03
2.861846e+03,1.831336e+03
2.872453e+03,1.851940e+03
2.883059e+03,1.883763e+03
2.893666e+03,1.896428e+03
2.904273e+03,1.941832e+03
2.914879e+03,1.960959e+03
2.925486e+03,1.957799e+03
2.936092e+03,1.992332e+03
2.946699e+03,2.000506e+03
2.957305e+03,2.104332e+03
2.967912e+03,2.026620e+03
2.978519e+03,2.096726e+03
2.989125e+03,2.086656e+03
2.999732e+03,2.132946e+03
3.010338e+03,2.237593e+03
3.020945e+03,2.234338e+03
3.031552e+03,2.268072e+03
3.042158e+03,2.338572e+03
3.052764e+03,2.356868e+03
3.063371e+03,2.426396e+03
3.073978e+03,2.424554e+03
3.084584e+03,2.425022e+03
3.095191e+03,2.543218e+03
3.105797e+03,2.582147e+03
3.116404e+03,2.630346e+03
3.127010e+03,2.584821e+03
3.137617e+03,2.650975e+03
3.148224e+03,2.757033e+03
3.158830e+03,2.794112e+03
3.169437e+03,2.887301e+03
3.180043e+03,2.929912e+03
3.190650e+03,3.003942e+03
3.200292e+03,3.117535e+03