File: RAMAN_data/20012023_r1/blue fibre12.CSV
1.995979e+02,2.236085e+03
2.102045e+02,2.234593e+03
2.208110e+02,2.251438e+03
2.314176e+02,2.247546e+03
2.420242e+02,2.247884e+03
2.526307e+02,2.236864e+03
2.632373e+02,2.247159e+03
2.738439e+02,2.248231e+03
2.844504e+02,2.264636e+03
2.950570e+02,2.253279e+03
3.056636e+02,2.243278e+03
3.162701e+02,2.260444e+03
3.268767e+02,2.260380e+03
3.374833e+02,2.254013e+03
3.480898e+02,2.255591e+03
3.586964e+02,2.276298e+03
3.693030e+02,2.259732e+03
3.799095e+02,2.276845e+03
3.905161e+02,2.240449e+03
4.011227e+02,2.243604e+03
4.117292e+02,2.224165e+03
4.223358e+02,2.229640e+03
4.329424e+02,2.227756e+03
4.435490e+02,2.216230e+03
4.541555e+02,2.222120e+03
4.647621e+02,2.190087e+03
4.753687e+02,2.198103e+03
4.859752e+02,2.160628e+03
4.965818e+02,2.169818e+03
5.071884e+02,2.162919e+03
5.177949e+02,2.172292e+03
5.284015e+02,2.148837e+03
5.390081e+02,2.127613e+03
5.496146e+02,2.125243e+03
5.602212e+02,2.122622e+03
5.708278e+02,2.099808e+03
5.814343e+02,2.103401e+03
5.920409e+02,2.101159e+03
6.026475e+02,2.068385e+03
6.132540e+02,2.073739e+03
6.238606e+02,2.054675e+03
6.344672e+02,2.054598e+03
6.450737e+02,2.042081e+03
6.556803e+02,2.019048e+03
6.662869e+02,2.004146e+03
6.768934e+02,2.006284e+03
6.875000e+02,1.995115e+03
6.981066e+02,1.972883e+03
7.087131e+02,1.971371e+03
7.193197e+02,1.960427e+03
7.299263e+02,1.937760e+03
7.405328e+02,1.920781e+03
7.511394e+02,1.911048e+03
7.617460e+02,1.903164e+03
7.723525e+02,1.883385e+03
7.829591e+02,1.873044e+03
7.935657e+02,1.850780e+03
8.041722e+02,1.840835e+03
8.147788e+02,1.844594e+03
8.253854e+02,1.825432e+03
8.359919e+02,1.815602e+03
8.465985e+02,1.796489e+03
8.572051e+02,1.779566e+03
8.678116e+02,1.771897e+03
8.784182e+02,1.771889e+03
8.890248e+02,1.752714e+03
8.996313e+02,1.749042e+03
9.102379e+02,1.744515e+03
9.208445e+02,1.717119e+03
9.314510e+02,1.714126e+03
9.420576e+02,1.675023e+03
9.526642e+02,1.675501e+03
9.632708e+02,1.677569e+03
9.738773e+02,1.648723e+03
9.844839e+02,1.636193e+03
9.950905e+02,1.636133e+03
1.005697e+03,1.617063e+03
1.016304e+03,1.592447e+03
1.026910e+03,1.592337e+03
1.037517e+03,1.598679e+03
1.048123e+03,1.582907e+03
1.058730e+03,1.566634e+03
1.069336e+03,1.568602e+03
1.079943e+03,1.548627e+03
1.090550e+03,1.580990e+03
1.101156e+03,1.539982e+03
1.111763e+03,1.527314e+03
1.122369e+03,1.530042e+03
1.132976e+03,1.508774e+03
1.143582e+03,1.478197e+03
1.154189e+03,1.471062e+03
1.164796e+03,1.455281e+03
1.175402e+03,1.439508e+03
1.186009e+03,1.432647e+03
1.196615e+03,1.423143e+03
1.207222e+03,1.412155e+03
1.217828e+03,1.393708e+03
1.228435e+03,1.402313e+03
1.239042e+03,1.400226e+03
1.249648e+03,1.386920e+03
1.260255e+03,1.375556e+03
1.270861e+03,1.380350e+03
1.281468e+03,1.349647e+03
1.292074e+03,1.356016e+03
1.302681e+03,1.334510e+03
1.313287e+03,1.328692e+03
1.323894e+03,1.325711e+03
1.334501e+03,1.332689e+03
1.345107e+03,1.316954e+03
1.355714e+03,1.295793e+03
1.366320e+03,1.304537e+03
1.376927e+03,1.291979e+03
1.387533e+03,1.277141e+03
1.398140e+03,1.270794e+03
1.408747e+03,1.253191e+03
1.419353e+03,1.255500e+03
1.429960e+03,1.233383e+03
1.440566e+03,1.229489e+03
1.451173e+03,1.220631e+03
1.461779e+03,1.211740e+03
1.472386e+03,1.203178e+03
1.482993e+03,1.191100e+03
1.493599e+03,1.173421e+03
1.504206e+03,1.173652e+03
1.514812e+03,1.153211e+03
1.525419e+03,1.154784e+03
1.536025e+03,1.150831e+03
1.546632e+03,1.139098e+03
1.557239e+03,1.132454e+03
1.567845e+03,1.119081e+03
1.578452e+03,1.112851e+03
1.589058e+03,1.105018e+03
1.599665e+03,1.097513e+03
1.610271e+03,1.082847e+03
1.620878e+03,1.078493e+03
1.631484e+03,1.069087e+03
1.642091e+03,1.058084e+03
1.652698e+03,1.040791e+03
1.663304e+03,1.032523e+03
1.673911e+03,1.033533e+03
1.684517e+03,1.025506e+03
1.695124e+03,1.015413e+03
1.705730e+03,1.011529e+03
1.716337e+03,9.841985e+02
1.726944e+03,9.919821e+02
1.737550e+03,9.747055e+02
1.748157e+03,9.680236e+02
1.758763e+03,9.605780e+02
1.769370e+03,9.561148e+02
1.779976e+03,9.404066e+02
1.790583e+03,9.370341e+02
1.801190e+03,9.201111e+02
1.811796e+03,9.064107e+02
1.822403e+03,9.133611e+02
1.833009e+03,8.847998e+02
1.843616e+03,8.984835e+02
1.854222e+03,8.783977e+02
1.864829e+03,8.616833e+02
1.875436e+03,8.701143e+02
1.886042e+03,8.485687e+02
1.896649e+03,8.470794e+02
1.907255e+03,8.309564e+02
1.917862e+03,8.248631e+02
1.928468e+03,8.196976e+02
1.939075e+03,8.052093e+02
1.949682e+03,8.110413e+02
1.960288e+03,7.916002e+02
1.970895e+03,7.797953e+02
1.981501e+03,7.861536e+02
1.992108e+03,7.796465e+02
2.002714e+03,7.575889e+02
2.013321e+03,7.462820e+02
2.023927e+03,7.437979e+02
2.034534e+03,7.323235e+02
2.045141e+03,7.234843e+02
2.055747e+03,7.107845e+02
2.066354e+03,7.107982e+02
2.076960e+03,6.847394e+02
2.087567e+03,6.881743e+02
2.098173e+03,6.843121e+02
2.108780e+03,6.857873e+02
2.119387e+03,6.655236e+02
2.129993e+03,6.549218e+02
2.140600e+03,6.520359e+02
2.151206e+03,6.415491e+02
2.161813e+03,6.380654e+02
2.172419e+03,6.298926e+02
2.183026e+03,6.114542e+02
2.193633e+03,6.040565e+02
2.204239e+03,6.048611e+02
2.214846e+03,5.999368e+02
2.225452e+03,5.870334e+02
2.236059e+03,5.915285e+02
2.246666e+03,5.813764e+02
2.257272e+03,5.637694e+02
2.267879e+03,5.543608e+02
2.278485e+03,5.515848e+02
2.289092e+03,5.558160e+02
2.299698e+03,5.410930e+02
2.310305e+03,5.345666e+02
2.320911e+03,5.364197e+02
2.331518e+03,5.213817e+02
2.342125e+03,5.192162e+02
2.352731e+03,5.159148e+02
2.363338e+03,5.014943e+02
2.373944e+03,4.941430e+02
2.384551e+03,4.970729e+02
2.395157e+03,4.899134e+02
2.405764e+03,4.851348e+02
2.416370e+03,4.670163e+02
2.426977e+03,4.728051e+02
2.437584e+03,4.667675e+02
2.448190e+03,4.681166e+02
2.458797e+03,4.537635e+02
2.469403e+03,4.474479e+02
2.480010e+03,4.478123e+02
2.490616e+03,4.508329e+02
2.501223e+03,4.344428e+02
2.511830e+03,4.499272e+02
2.522436e+03,4.284056e+02
2.533043e+03,4.257906e+02
2.543649e+03,4.192026e+02
2.554256e+03,4.288662e+02
2.564863e+03,4.067941e+02
2.575469e+03,4.238741e+02
2.586075e+03,3.983720e+02
2.596682e+03,3.952207e+02
2.607289e+03,3.942932e+02
2.617895e+03,3.870197e+02
2.628502e+03,3.875289e+02
2.639108e+03,3.914527e+02
2.649715e+03,3.803443e+02
2.660322e+03,3.768115e+02
2.670928e+03,3.853630e+02
2.681535e+03,3.717192e+02
2.692141e+03,3.679602e+02
2.702748e+03,3.612282e+02
2.713354e+03,3.760892e+02
2.723961e+03,3.787638e+02
2.734568e+03,3.663905e+02
2.745174e+03,3.697822e+02
2.755781e+03,3.484153e+02
2.766387e+03,3.467036e+02
2.776994e+03,3.461619e+02
2.787600e+03,3.433986e+02
2.798207e+03,3.478042e+02
2.808813e+03,3.446419e+02
2.819420e+03,3.345891e+02
2.830027e+03,3.355590e+02
2.840633e+03,3.355560e+02
2.851240e+03,3.459079e+02
2.861846e+03,3.460304e+02
2.872453e+03,3.549255e+02
2.883059e+03,3.636646e+02
2.893666e+03,3.592664e+02
2.904273e+03,3.640552e+02
2.914879e+03,3.701150e+02
2.925486e+03,3.478760e+02
2.936092e+03,3.386364e+02
2.946699e+03,3.445976e+02
2.957305e+03,3.700171e+02
2.967912e+03,3.276812e+02
2.978519e+03,3.293216e+02
2.989125e+03,3.057402e+02
2.999732e+03,2.864053e+02
3.010338e+03,3.028159e+02
3.020945e+03,2.890821e+02
3.031552e+03,2.920531e+02
3.042158e+03,2.907374e+02
3.052764e+03,2.993116e+02
3.063371e+03,3.041800e+02
3.073978e+03,3.043772e+02
3.084584e+03,2.862633e+02
3.095191e+03,3.184221e+02
3.105797e+03,2.892934e+02
3.116404e+03,2.918210e+02
3.127010e+03,2.921421e+02
3.137617e+03,3.393429e+02
3.148224e+03,2.943195e+02
3.158830e+03,3.170912e+02
3.169437e+03,2.851570e+02
3.180043e+03,3.198105e+02
3.190650e+03,2.805568e+02
3.200292e+03,3.358374e+02