File: RAMAN_data/20012023_r1/blue fibre7.CSV
1.995979e+02,1.043386e+04
2.102045e+02,1.053574e+04
2.208110e+02,1.064697e+04
2.314176e+02,1.074361e+04
2.420242e+02,1.080225e+04
2.526307e+02,1.094087e+04
2.632373e+02,1.104929e+04
2.738439e+02,1.111904e+04
2.844504e+02,1.128064e+04
2.950570e+02,1.135869e+04
3.056636e+02,1.145896e+04
3.162701e+02,1.157587e+04
3.268767e+02,1.167330e+04
3.374833e+02,1.177743e+04
3.480898e+02,1.192112e+04
3.586964e+02,1.207646e+04
3.693030e+02,1.213097e+04
3.799095e+02,1.224277e+04
3.905161e+02,1.235036e+04
4.011227e+02,1.245332e+04
4.117292e+02,1.255552e+04
4.223358e+02,1.267513e+04
4.329424e+02,1.275294e+04
4.435490e+02,1.290640e+04
4.541555e+02,1.302769e+04
4.647621e+02,1.309611e+04
4.753687e+02,1.318886e+04
4.859752e+02,1.327534e+04
4.965818e+02,1.335587e+04
5.071884e+02,1.342324e+04
5.177949e+02,1.352112e+04
5.284015e+02,1.357761e+04
5.390081e+02,1.359356e+04
5.496146e+02,1.366852e+04
5.602212e+02,1.369478e+04
5.708278e+02,1.371565e+04
5.814343e+02,1.391985e+04
5.920409e+02,1.396719e+04
6.026475e+02,1.392178e+04
6.132540e+02,1.394828e+04
6.238606e+02,1.394393e+04
6.344672e+02,1.401229e+04
6.450737e+02,1.392790e+04
6.556803e+02,1.407200e+04
6.662869e+02,1.411994e+04
6.768934e+02,1.408160e+04
6.875000e+02,1.408670e+04
6.981066e+02,1.414916e+04
7.087131e+02,1.409815e+04
7.193197e+02,1.414970e+04
7.299263e+02,1.417720e+04
7.405328e+02,1.422573e+04
7.511394e+02,1.418773e+04
7.617460e+02,1.445883e+04
7.723525e+02,1.426114e+04
7.829591e+02,1.420393e+04
7.935657e+02,1.427085e+04
8.041722e+02,1.424780e+04
8.147788e+02,1.416768e+04
8.253854e+02,1.415432e+04
8.359919e+02,1.418300e+04
8.465985e+02,1.421393e+04
8.572051e+02,1.415167e+04
8.678116e+02,1.417710e+04
8.784182e+02,1.412719e+04
8.890248e+02,1.415084e+04
8.996313e+02,1.411104e+04
9.102379e+02,1.405153e+04
9.208445e+02,1.399419e+04
9.314510e+02,1.399425e+04
9.420576e+02,1.394797e+04
9.526642e+02,1.385831e+04
9.632708e+02,1.377769e+04
9.738773e+02,1.365003e+04
9.844839e+02,1.360223e+04
9.950905e+02,1.352577e+04
1.005697e+03,1.343521e+04
1.016304e+03,1.334787e+04
1.026910e+03,1.332949e+04
1.037517e+03,1.322918e+04
1.048123e+03,1.311846e+04
1.058730e+03,1.306401e+04
1.069336e+03,1.300415e+04
1.079943e+03,1.289903e+04
1.090550e+03,1.282595e+04
1.101156e+03,1.272673e+04
1.111763e+03,1.262101e+04
1.122369e+03,1.257191e+04
1.132976e+03,1.251656e+04
1.143582e+03,1.240975e+04
1.154189e+03,1.235424e+04
1.164796e+03,1.231307e+04
1.175402e+03,1.221976e+04
1.186009e+03,1.216541e+04
1.196615e+03,1.216027e+04
1.207222e+03,1.208390e+04
1.217828e+03,1.206533e+04
1.228435e+03,1.209763e+04
1.239042e+03,1.207756e+04
1.249648e+03,1.205246e+04
1.260255e+03,1.209609e+04
1.270861e+03,1.211051e+04
1.281468e+03,1.208050e+04
1.292074e+03,1.213719e+04
1.302681e+03,1.218566e+04
1.313287e+03,1.220867e+04
1.323894e+03,1.225404e+04
1.334501e+03,1.234862e+04
1.345107e+03,1.237413e+04
1.355714e+03,1.244750e+04
1.366320e+03,1.253770e+04
1.376927e+03,1.253844e+04
1.387533e+03,1.263314e+04
1.398140e+03,1.271286e+04
1.408747e+03,1.275718e+04
1.419353e+03,1.282238e+04
1.429960e+03,1.281213e+04
1.440566e+03,1.277756e+04
1.451173e+03,1.271480e+04
1.461779e+03,1.273763e+04
1.472386e+03,1.268601e+04
1.482993e+03,1.261118e+04
1.493599e+03,1.260212e+04
1.504206e+03,1.258501e+04
1.514812e+03,1.254185e+04
1.525419e+03,1.265997e+04
1.536025e+03,1.248948e+04
1.546632e+03,1.235490e+04
1.557239e+03,1.234217e+04
1.567845e+03,1.231148e+04
1.578452e+03,1.224769e+04
1.589058e+03,1.227896e+04
1.599665e+03,1.217881e+04
1.610271e+03,1.206308e+04
1.620878e+03,1.203187e+04
1.631484e+03,1.210277e+04
1.642091e+03,1.185697e+04
1.652698e+03,1.179433e+04
1.663304e+03,1.171399e+04
1.673911e+03,1.170951e+04
1.684517e+03,1.173694e+04
1.695124e+03,1.161311e+04
1.705730e+03,1.156495e+04
1.716337e+03,1.145018e+04
1.726944e+03,1.137526e+04
1.737550e+03,1.130900e+04
1.748157e+03,1.122089e+04
1.758763e+03,1.119765e+04
1.769370e+03,1.113933e+04
1.779976e+03,1.103780e+04
1.790583e+03,1.092864e+04
1.801190e+03,1.089878e+04
1.811796e+03,1.086376e+04
1.822403e+03,1.082082e+04
1.833009e+03,1.078253e+04
1.843616e+03,1.070559e+04
1.854222e+03,1.062949e+04
1.864829e+03,1.060973e+04
1.875436e+03,1.053914e+04
1.886042e+03,1.038936e+04
1.896649e+03,1.034781e+04
1.907255e+03,1.026072e+04
1.917862e+03,1.016671e+04
1.928468e+03,1.017192e+04
1.939075e+03,1.009131e+04
1.949682e+03,9.983404e+03
1.960288e+03,9.957438e+03
1.970895e+03,9.909884e+03
1.981501e+03,9.812779e+03
1.992108e+03,9.760390e+03
2.002714e+03,9.698019e+03
2.013321e+03,9.613676e+03
2.023927e+03,9.526512e+03
2.034534e+03,9.503917e+03
2.045141e+03,9.412521e+03
2.055747e+03,9.312895e+03
2.066354e+03,9.259712e+03
2.076960e+03,9.221149e+03
2.087567e+03,9.136596e+03
2.098173e+03,9.074699e+03
2.108780e+03,9.056229e+03
2.119387e+03,8.944967e+03
2.129993e+03,8.851704e+03
2.140600e+03,8.775561e+03
2.151206e+03,8.775168e+03
2.161813e+03,8.677787e+03
2.172419e+03,8.597974e+03
2.183026e+03,8.520886e+03
2.193633e+03,8.484889e+03
2.204239e+03,8.433896e+03
2.214846e+03,8.343961e+03
2.225452e+03,8.243347e+03
2.236059e+03,8.184071e+03
2.246666e+03,8.140548e+03
2.257272e+03,8.046362e+03
2.267879e+03,8.004434e+03
2.278485e+03,7.900187e+03
2.289092e+03,7.865262e+03
2.299698e+03,7.855428e+03
2.310305e+03,7.740352e+03
2.320911e+03,7.715565e+03
2.331518e+03,7.615404e+03
2.342125e+03,7.536295e+03
2.352731e+03,7.505402e+03
2.363338e+03,7.459919e+03
2.373944e+03,7.356304e+03
2.384551e+03,7.370761e+03
2.395157e+03,7.261366e+03
2.405764e+03,7.220544e+03
2.416370e+03,7.155388e+03
2.426977e+03,7.100259e+03
2.437584e+03,7.028670e+03
2.448190e+03,6.980896e+03
2.458797e+03,6.906193e+03
2.469403e+03,6.827981e+03
2.480010e+03,6.851913e+03
2.490616e+03,6.781713e+03
2.501223e+03,6.685785e+03
2.511830e+03,6.669256e+03
2.522436e+03,6.613646e+03
2.533043e+03,6.543190e+03
2.543649e+03,6.507651e+03
2.554256e+03,6.448890e+03
2.564863e+03,6.379849e+03
2.575469e+03,6.356246e+03
2.586075e+03,6.282554e+03
2.596682e+03,6.276849e+03
2.607289e+03,6.200378e+03
2.617895e+03,6.078639e+03
2.628502e+03,6.089812e+03
2.639108e+03,6.042349e+03
2.649715e+03,6.041469e+03
2.660322e+03,5.970515e+03
2.670928e+03,5.926474e+03
2.681535e+03,5.849679e+03
2.692141e+03,5.797364e+03
2.702748e+03,5.772583e+03
2.713354e+03,5.699479e+03
2.723961e+03,5.634669e+03
2.734568e+03,5.617765e+03
2.745174e+03,5.571959e+03
2.755781e+03,5.555953e+03
2.766387e+03,5.519437e+03
2.776994e+03,5.496992e+03
2.787600e+03,5.443955e+03
2.798207e+03,5.420531e+03
2.808813e+03,5.314307e+03
2.819420e+03,5.255732e+03
2.830027e+03,5.256843e+03
2.840633e+03,5.210167e+03
2.851240e+03,5.198853e+03
2.861846e+03,5.135669e+03
2.872453e+03,5.116606e+03
2.883059e+03,5.132526e+03
2.893666e+03,5.070091e+03
2.904273e+03,5.040361e+03
2.914879e+03,4.961696e+03
2.925486e+03,4.926136e+03
2.936092e+03,4.910030e+03
2.946699e+03,4.835669e+03
2.957305e+03,4.819704e+03
2.967912e+03,4.796240e+03
2.978519e+03,4.733825e+03
2.989125e+03,4.679392e+03
2.999732e+03,4.677396e+03
3.010338e+03,4.663115e+03
3.020945e+03,4.624925e+03
3.031552e+03,4.604013e+03
3.042158e+03,4.615375e+03
3.052764e+03,4.554818e+03
3.063371e+03,4.535258e+03
3.073978e+03,4.436664e+03
3.084584e+03,4.450069e+03
3.095191e+03,4.429875e+03
3.105797e+03,4.405893e+03
3.116404e+03,4.380673e+03
3.127010e+03,4.376035e+03
3.137617e+03,4.402167e+03
3.148224e+03,4.359252e+03
3.158830e+03,4.251757e+03
3.169437e+03,4.306375e+03
3.180043e+03,4.286138e+03
3.190650e+03,4.341679e+03
3.200292e+03,4.300832e+03