File: RAMAN_data/20012023_r1/blue fibre14.CSV
1.995979e+02,3.251837e+03
2.102045e+02,3.249969e+03
2.208110e+02,3.268294e+03
2.314176e+02,3.280384e+03
2.420242e+02,3.267495e+03
2.526307e+02,3.294634e+03
2.632373e+02,3.307830e+03
2.738439e+02,3.314980e+03
2.844504e+02,3.336004e+03
2.950570e+02,3.313965e+03
3.056636e+02,3.309114e+03
3.162701e+02,3.314302e+03
3.268767e+02,3.329052e+03
3.374833e+02,3.312907e+03
3.480898e+02,3.328201e+03
3.586964e+02,3.338625e+03
3.693030e+02,3.339745e+03
3.799095e+02,3.343099e+03
3.905161e+02,3.323985e+03
4.011227e+02,3.314528e+03
4.117292e+02,3.325169e+03
4.223358e+02,3.311468e+03
4.329424e+02,3.322725e+03
4.435490e+02,3.301023e+03
4.541555e+02,3.313612e+03
4.647621e+02,3.287679e+03
4.753687e+02,3.272156e+03
4.859752e+02,3.269578e+03
4.965818e+02,3.270137e+03
5.071884e+02,3.260360e+03
5.177949e+02,3.250320e+03
5.284015e+02,3.224355e+03
5.390081e+02,3.207191e+03
5.496146e+02,3.195377e+03
5.602212e+02,3.177901e+03
5.708278e+02,3.175150e+03
5.814343e+02,3.167938e+03
5.920409e+02,3.164476e+03
6.026475e+02,3.140671e+03
6.132540e+02,3.130114e+03
6.238606e+02,3.112763e+03
6.344672e+02,3.096078e+03
6.450737e+02,3.102796e+03
6.556803e+02,3.074717e+03
6.662869e+02,3.057397e+03
6.768934e+02,3.034509e+03
6.875000e+02,3.033956e+03
6.981066e+02,2.995797e+03
7.087131e+02,2.990706e+03
7.193197e+02,2.966567e+03
7.299263e+02,2.971837e+03
7.405328e+02,2.954941e+03
7.511394e+02,2.929506e+03
7.617460e+02,2.918405e+03
7.723525e+02,2.891707e+03
7.829591e+02,2.885376e+03
7.935657e+02,2.866088e+03
8.041722e+02,2.844542e+03
8.147788e+02,2.839227e+03
8.253854e+02,2.830704e+03
8.359919e+02,2.818271e+03
8.465985e+02,2.787259e+03
8.572051e+02,2.777395e+03
8.678116e+02,2.763288e+03
8.784182e+02,2.765593e+03
8.890248e+02,2.745978e+03
8.996313e+02,2.731062e+03
9.102379e+02,2.704922e+03
9.208445e+02,2.673246e+03
9.314510e+02,2.660935e+03
9.420576e+02,2.651808e+03
9.526642e+02,2.626846e+03
9.632708e+02,2.603680e+03
9.738773e+02,2.582789e+03
9.844839e+02,2.588704e+03
9.950905e+02,2.581634e+03
1.005697e+03,2.550339e+03
1.016304e+03,2.520689e+03
1.026910e+03,2.517726e+03
1.037517e+03,2.510259e+03
1.048123e+03,2.504822e+03
1.058730e+03,2.479510e+03
1.069336e+03,2.480789e+03
1.079943e+03,2.463836e+03
1.090550e+03,2.487657e+03
1.101156e+03,2.454974e+03
1.111763e+03,2.444620e+03
1.122369e+03,2.451175e+03
1.132976e+03,2.434016e+03
1.143582e+03,2.402758e+03
1.154189e+03,2.389860e+03
1.164796e+03,2.382576e+03
1.175402e+03,2.349231e+03
1.186009e+03,2.321872e+03
1.196615e+03,2.331795e+03
1.207222e+03,2.327355e+03
1.217828e+03,2.323224e+03
1.228435e+03,2.304401e+03
1.239042e+03,2.304522e+03
1.249648e+03,2.293952e+03
1.260255e+03,2.259891e+03
1.270861e+03,2.266142e+03
1.281468e+03,2.246595e+03
1.292074e+03,2.236722e+03
1.302681e+03,2.213409e+03
1.313287e+03,2.218300e+03
1.323894e+03,2.199890e+03
1.334501e+03,2.213999e+03
1.345107e+03,2.189197e+03
1.355714e+03,2.176258e+03
1.366320e+03,2.163723e+03
1.376927e+03,2.146724e+03
1.387533e+03,2.117565e+03
1.398140e+03,2.094314e+03
1.408747e+03,2.090933e+03
1.419353e+03,2.080984e+03
1.429960e+03,2.057076e+03
1.440566e+03,2.042361e+03
1.451173e+03,2.031218e+03
1.461779e+03,2.023551e+03
1.472386e+03,1.991805e+03
1.482993e+03,1.991439e+03
1.493599e+03,1.977232e+03
1.504206e+03,1.961734e+03
1.514812e+03,1.930377e+03
1.525419e+03,1.932053e+03
1.536025e+03,1.925396e+03
1.546632e+03,1.909613e+03
1.557239e+03,1.919949e+03
1.567845e+03,1.926864e+03
1.578452e+03,1.904591e+03
1.589058e+03,1.876903e+03
1.599665e+03,1.855177e+03
1.610271e+03,1.862727e+03
1.620878e+03,1.841011e+03
1.631484e+03,1.815455e+03
1.642091e+03,1.812258e+03
1.652698e+03,1.803084e+03
1.663304e+03,1.776045e+03
1.673911e+03,1.763249e+03
1.684517e+03,1.757034e+03
1.695124e+03,1.745423e+03
1.705730e+03,1.725750e+03
1.716337e+03,1.709704e+03
1.726944e+03,1.704840e+03
1.737550e+03,1.681948e+03
1.748157e+03,1.663500e+03
1.758763e+03,1.664122e+03
1.769370e+03,1.657731e+03
1.779976e+03,1.623586e+03
1.790583e+03,1.610643e+03
1.801190e+03,1.621091e+03
1.811796e+03,1.604304e+03
1.822403e+03,1.569073e+03
1.833009e+03,1.549485e+03
1.843616e+03,1.564390e+03
1.854222e+03,1.539528e+03
1.864829e+03,1.529720e+03
1.875436e+03,1.522611e+03
1.886042e+03,1.484046e+03
1.896649e+03,1.476173e+03
1.907255e+03,1.467190e+03
1.917862e+03,1.455441e+03
1.928468e+03,1.436121e+03
1.939075e+03,1.435453e+03
1.949682e+03,1.413335e+03
1.960288e+03,1.397886e+03
1.970895e+03,1.377061e+03
1.981501e+03,1.382208e+03
1.992108e+03,1.354621e+03
2.002714e+03,1.329484e+03
2.013321e+03,1.341083e+03
2.023927e+03,1.317275e+03
2.034534e+03,1.311248e+03
2.045141e+03,1.284378e+03
2.055747e+03,1.267453e+03
2.066354e+03,1.264802e+03
2.076960e+03,1.254075e+03
2.087567e+03,1.238039e+03
2.098173e+03,1.239171e+03
2.108780e+03,1.230189e+03
2.119387e+03,1.205273e+03
2.129993e+03,1.194278e+03
2.140600e+03,1.178074e+03
2.151206e+03,1.164306e+03
2.161813e+03,1.145503e+03
2.172419e+03,1.151136e+03
2.183026e+03,1.128553e+03
2.193633e+03,1.101514e+03
2.204239e+03,1.114819e+03
2.214846e+03,1.089490e+03
2.225452e+03,1.075442e+03
2.236059e+03,1.048732e+03
2.246666e+03,1.044944e+03
2.257272e+03,1.034818e+03
2.267879e+03,1.022939e+03
2.278485e+03,1.004796e+03
2.289092e+03,1.005960e+03
2.299698e+03,1.001198e+03
2.310305e+03,9.815198e+02
2.320911e+03,9.793284e+02
2.331518e+03,9.513770e+02
2.342125e+03,9.533226e+02
2.352731e+03,9.454957e+02
2.363338e+03,9.423273e+02
2.373944e+03,9.309887e+02
2.384551e+03,9.141985e+02
2.395157e+03,9.085429e+02
2.405764e+03,8.973952e+02
2.416370e+03,8.845039e+02
2.426977e+03,8.835824e+02
2.437584e+03,8.703029e+02
2.448190e+03,8.661285e+02
2.458797e+03,8.623512e+02
2.469403e+03,8.459158e+02
2.480010e+03,8.350409e+02
2.490616e+03,8.220295e+02
2.501223e+03,8.245182e+02
2.511830e+03,8.088491e+02
2.522436e+03,7.927091e+02
2.533043e+03,7.955143e+02
2.543649e+03,7.909640e+02
2.554256e+03,7.902618e+02
2.564863e+03,7.816527e+02
2.575469e+03,7.735547e+02
2.586075e+03,7.557277e+02
2.596682e+03,7.455546e+02
2.607289e+03,7.360945e+02
2.617895e+03,7.426521e+02
2.628502e+03,7.312766e+02
2.639108e+03,7.344677e+02
2.649715e+03,7.254896e+02
2.660322e+03,7.296592e+02
2.670928e+03,7.265200e+02
2.681535e+03,7.119906e+02
2.692141e+03,6.837598e+02
2.702748e+03,6.994033e+02
2.713354e+03,6.902743e+02
2.723961e+03,6.661272e+02
2.734568e+03,6.839097e+02
2.745174e+03,6.713965e+02
2.755781e+03,6.521526e+02
2.766387e+03,6.487518e+02
2.776994e+03,6.619058e+02
2.787600e+03,6.587856e+02
2.798207e+03,6.627894e+02
2.808813e+03,6.448159e+02
2.819420e+03,6.433601e+02
2.830027e+03,6.398033e+02
2.840633e+03,6.320430e+02
2.851240e+03,6.410723e+02
2.861846e+03,6.462977e+02
2.872453e+03,6.500186e+02
2.883059e+03,6.385871e+02
2.893666e+03,6.628760e+02
2.904273e+03,6.408581e+02
2.914879e+03,6.442520e+02
2.925486e+03,6.303319e+02
2.936092e+03,6.080159e+02
2.946699e+03,6.136306e+02
2.957305e+03,6.318793e+02
2.967912e+03,6.000914e+02
2.978519e+03,5.941442e+02
2.989125e+03,5.622602e+02
2.999732e+03,5.735019e+02
3.010338e+03,5.757579e+02
3.020945e+03,5.813545e+02
3.031552e+03,5.670804e+02
3.042158e+03,5.732034e+02
3.052764e+03,5.542867e+02
3.063371e+03,5.665461e+02
3.073978e+03,5.548484e+02
3.084584e+03,5.817012e+02
3.095191e+03,5.739706e+02
3.105797e+03,5.585787e+02
3.116404e+03,5.609938e+02
3.127010e+03,5.332495e+02
3.137617e+03,5.165774e+02
3.148224e+03,5.458117e+02
3.158830e+03,5.698780e+02
3.169437e+03,5.781110e+02
3.180043e+03,5.358794e+02
3.190650e+03,5.425257e+02
3.200292e+03,5.881885e+02