File: RAMAN_data/20012023_r1/blue fibre15.CSV
1.995979e+02,5.990264e+03
2.102045e+02,6.069423e+03
2.208110e+02,6.144086e+03
2.314176e+02,6.194046e+03
2.420242e+02,6.296255e+03
2.526307e+02,6.425948e+03
2.632373e+02,6.496155e+03
2.738439e+02,6.598191e+03
2.844504e+02,6.729865e+03
2.950570e+02,6.690711e+03
3.056636e+02,6.708054e+03
3.162701e+02,6.792170e+03
3.268767e+02,6.852885e+03
3.374833e+02,6.893905e+03
3.480898e+02,6.941862e+03
3.586964e+02,6.998117e+03
3.693030e+02,7.042360e+03
3.799095e+02,7.109054e+03
3.905161e+02,7.152082e+03
4.011227e+02,7.157381e+03
4.117292e+02,7.207852e+03
4.223358e+02,7.255243e+03
4.329424e+02,7.289291e+03
4.435490e+02,7.332998e+03
4.541555e+02,7.377738e+03
4.647621e+02,7.336140e+03
4.753687e+02,7.371764e+03
4.859752e+02,7.391798e+03
4.965818e+02,7.427276e+03
5.071884e+02,7.467070e+03
5.177949e+02,7.502555e+03
5.284015e+02,7.503931e+03
5.390081e+02,7.546648e+03
5.496146e+02,7.647888e+03
5.602212e+02,7.778071e+03
5.708278e+02,7.547573e+03
5.814343e+02,7.519188e+03
5.920409e+02,7.550745e+03
6.026475e+02,7.600873e+03
6.132540e+02,7.686572e+03
6.238606e+02,7.515874e+03
6.344672e+02,7.490587e+03
6.450737e+02,7.450373e+03
6.556803e+02,7.464360e+03
6.662869e+02,7.422354e+03
6.768934e+02,7.454368e+03
6.875000e+02,7.449827e+03
6.981066e+02,7.356308e+03
7.087131e+02,7.328461e+03
7.193197e+02,7.348688e+03
7.299263e+02,7.269319e+03
7.405328e+02,7.242093e+03
7.511394e+02,7.247275e+03
7.617460e+02,7.243185e+03
7.723525e+02,7.165636e+03
7.829591e+02,7.190390e+03
7.935657e+02,7.184601e+03
8.041722e+02,7.065046e+03
8.147788e+02,7.024720e+03
8.253854e+02,6.998737e+03
8.359919e+02,6.975798e+03
8.465985e+02,6.941015e+03
8.572051e+02,6.874060e+03
8.678116e+02,6.836617e+03
8.784182e+02,6.780503e+03
8.890248e+02,6.778619e+03
8.996313e+02,6.707747e+03
9.102379e+02,6.626283e+03
9.208445e+02,6.580869e+03
9.314510e+02,6.529280e+03
9.420576e+02,6.492345e+03
9.526642e+02,6.447286e+03
9.632708e+02,6.431642e+03
9.738773e+02,6.330002e+03
9.844839e+02,6.325250e+03
9.950905e+02,6.278364e+03
1.005697e+03,6.222955e+03
1.016304e+03,6.158686e+03
1.026910e+03,6.109592e+03
1.037517e+03,6.105355e+03
1.048123e+03,6.050689e+03
1.058730e+03,6.025968e+03
1.069336e+03,5.999247e+03
1.079943e+03,5.995660e+03
1.090550e+03,5.938924e+03
1.101156e+03,5.870774e+03
1.111763e+03,5.804288e+03
1.122369e+03,5.756860e+03
1.132976e+03,5.710869e+03
1.143582e+03,5.667313e+03
1.154189e+03,5.598655e+03
1.164796e+03,5.557172e+03
1.175402e+03,5.502251e+03
1.186009e+03,5.475038e+03
1.196615e+03,5.460254e+03
1.207222e+03,5.364883e+03
1.217828e+03,5.329062e+03
1.228435e+03,5.307265e+03
1.239042e+03,5.278559e+03
1.249648e+03,5.197625e+03
1.260255e+03,5.159682e+03
1.270861e+03,5.135914e+03
1.281468e+03,5.052778e+03
1.292074e+03,5.061804e+03
1.302681e+03,5.011348e+03
1.313287e+03,4.971990e+03
1.323894e+03,4.935632e+03
1.334501e+03,4.931978e+03
1.345107e+03,4.875368e+03
1.355714e+03,4.846289e+03
1.366320e+03,4.816291e+03
1.376927e+03,4.761866e+03
1.387533e+03,4.707738e+03
1.398140e+03,4.690479e+03
1.408747e+03,4.641713e+03
1.419353e+03,4.601744e+03
1.429960e+03,4.570397e+03
1.440566e+03,4.518946e+03
1.451173e+03,4.566960e+03
1.461779e+03,4.490169e+03
1.472386e+03,4.436038e+03
1.482993e+03,4.412914e+03
1.493599e+03,4.374042e+03
1.504206e+03,4.359203e+03
1.514812e+03,4.333926e+03
1.525419e+03,4.308028e+03
1.536025e+03,4.255557e+03
1.546632e+03,4.211733e+03
1.557239e+03,4.207549e+03
1.567845e+03,4.282377e+03
1.578452e+03,4.216600e+03
1.589058e+03,4.157141e+03
1.599665e+03,4.115997e+03
1.610271e+03,4.069763e+03
1.620878e+03,4.036142e+03
1.631484e+03,4.037573e+03
1.642091e+03,3.949686e+03
1.652698e+03,3.906677e+03
1.663304e+03,3.883218e+03
1.673911e+03,3.869813e+03
1.684517e+03,3.848180e+03
1.695124e+03,3.796352e+03
1.705730e+03,3.750855e+03
1.716337e+03,3.720074e+03
1.726944e+03,3.698352e+03
1.737550e+03,3.681340e+03
1.748157e+03,3.644236e+03
1.758763e+03,3.621226e+03
1.769370e+03,3.581875e+03
1.779976e+03,3.550523e+03
1.790583e+03,3.519724e+03
1.801190e+03,3.520130e+03
1.811796e+03,3.466889e+03
1.822403e+03,3.438338e+03
1.833009e+03,3.438447e+03
1.843616e+03,3.393123e+03
1.854222e+03,3.350762e+03
1.864829e+03,3.342531e+03
1.875436e+03,3.317698e+03
1.886042e+03,3.237941e+03
1.896649e+03,3.227835e+03
1.907255e+03,3.239901e+03
1.917862e+03,3.164234e+03
1.928468e+03,3.174410e+03
1.939075e+03,3.131309e+03
1.949682e+03,3.111601e+03
1.960288e+03,3.061876e+03
1.970895e+03,3.034613e+03
1.981501e+03,2.996678e+03
1.992108e+03,2.976947e+03
2.002714e+03,2.957583e+03
2.013321e+03,2.930498e+03
2.023927e+03,2.884279e+03
2.034534e+03,2.871547e+03
2.045141e+03,2.822044e+03
2.055747e+03,2.794554e+03
2.066354e+03,2.780509e+03
2.076960e+03,2.752258e+03
2.087567e+03,2.704071e+03
2.098173e+03,2.703815e+03
2.108780e+03,2.648393e+03
2.119387e+03,2.642749e+03
2.129993e+03,2.586727e+03
2.140600e+03,2.563649e+03
2.151206e+03,2.542757e+03
2.161813e+03,2.526732e+03
2.172419e+03,2.491502e+03
2.183026e+03,2.462019e+03
2.193633e+03,2.432059e+03
2.204239e+03,2.422214e+03
2.214846e+03,2.402667e+03
2.225452e+03,2.363491e+03
2.236059e+03,2.322531e+03
2.246666e+03,2.306802e+03
2.257272e+03,2.274777e+03
2.267879e+03,2.230129e+03
2.278485e+03,2.216859e+03
2.289092e+03,2.202114e+03
2.299698e+03,2.180881e+03
2.310305e+03,2.140981e+03
2.320911e+03,2.110859e+03
2.331518e+03,2.089894e+03
2.342125e+03,2.071353e+03
2.352731e+03,2.025452e+03
2.363338e+03,2.028116e+03
2.373944e+03,1.995829e+03
2.384551e+03,1.968083e+03
2.395157e+03,1.963684e+03
2.405764e+03,1.934016e+03
2.416370e+03,1.930529e+03
2.426977e+03,1.879430e+03
2.437584e+03,1.872466e+03
2.448190e+03,1.847740e+03
2.458797e+03,1.826867e+03
2.469403e+03,1.780643e+03
2.480010e+03,1.784702e+03
2.490616e+03,1.775931e+03
2.501223e+03,1.729536e+03
2.511830e+03,1.714207e+03
2.522436e+03,1.709855e+03
2.533043e+03,1.687618e+03
2.543649e+03,1.661241e+03
2.554256e+03,1.667948e+03
2.564863e+03,1.629466e+03
2.575469e+03,1.638009e+03
2.586075e+03,1.608985e+03
2.596682e+03,1.594285e+03
2.607289e+03,1.588972e+03
2.617895e+03,1.554655e+03
2.628502e+03,1.540062e+03
2.639108e+03,1.530575e+03
2.649715e+03,1.510417e+03
2.660322e+03,1.514784e+03
2.670928e+03,1.498666e+03
2.681535e+03,1.477995e+03
2.692141e+03,1.460776e+03
2.702748e+03,1.434047e+03
2.713354e+03,1.439310e+03
2.723961e+03,1.423798e+03
2.734568e+03,1.431964e+03
2.745174e+03,1.407555e+03
2.755781e+03,1.365129e+03
2.766387e+03,1.371021e+03
2.776994e+03,1.368285e+03
2.787600e+03,1.331479e+03
2.798207e+03,1.335431e+03
2.808813e+03,1.345294e+03
2.819420e+03,1.305792e+03
2.830027e+03,1.322219e+03
2.840633e+03,1.304757e+03
2.851240e+03,1.298274e+03
2.861846e+03,1.301383e+03
2.872453e+03,1.269096e+03
2.883059e+03,1.299234e+03
2.893666e+03,1.316190e+03
2.904273e+03,1.292610e+03
2.914879e+03,1.268765e+03
2.925486e+03,1.271808e+03
2.936092e+03,1.241964e+03
2.946699e+03,1.239987e+03
2.957305e+03,1.258399e+03
2.967912e+03,1.224172e+03
2.978519e+03,1.199932e+03
2.989125e+03,1.181902e+03
2.999732e+03,1.148130e+03
3.010338e+03,1.151114e+03
3.020945e+03,1.156318e+03
3.031552e+03,1.127071e+03
3.042158e+03,1.156289e+03
3.052764e+03,1.130667e+03
3.063371e+03,1.129072e+03
3.073978e+03,1.181114e+03
3.084584e+03,1.138510e+03
3.095191e+03,1.118918e+03
3.105797e+03,1.138327e+03
3.116404e+03,1.150316e+03
3.127010e+03,1.120877e+03
3.137617e+03,1.105158e+03
3.148224e+03,1.111642e+03
3.158830e+03,1.117719e+03
3.169437e+03,1.112771e+03
3.180043e+03,1.083479e+03
3.190650e+03,1.119875e+03
3.200292e+03,1.185634e+03