File: RAMAN_data/20012023_r1/blue frag4.CSV
1.995979e+02,9.718895e+03
2.102045e+02,9.732416e+03
2.208110e+02,9.789388e+03
2.314176e+02,9.956071e+03
2.420242e+02,9.889980e+03
2.526307e+02,1.022851e+04
2.632373e+02,1.012883e+04
2.738439e+02,1.009444e+04
2.844504e+02,1.023125e+04
2.950570e+02,1.020823e+04
3.056636e+02,1.024487e+04
3.162701e+02,1.033424e+04
3.268767e+02,1.040216e+04
3.374833e+02,1.044674e+04
3.480898e+02,1.053951e+04
3.586964e+02,1.060018e+04
3.693030e+02,1.058240e+04
3.799095e+02,1.068662e+04
3.905161e+02,1.073674e+04
4.011227e+02,1.075586e+04
4.117292e+02,1.082025e+04
4.223358e+02,1.085347e+04
4.329424e+02,1.085268e+04
4.435490e+02,1.087174e+04
4.541555e+02,1.090670e+04
4.647621e+02,1.091310e+04
4.753687e+02,1.123946e+04
4.859752e+02,1.121959e+04
4.965818e+02,1.106069e+04
5.071884e+02,1.105923e+04
5.177949e+02,1.110697e+04
5.284015e+02,1.109756e+04
5.390081e+02,1.115557e+04
5.496146e+02,1.120838e+04
5.602212e+02,1.121674e+04
5.708278e+02,1.125132e+04
5.814343e+02,1.133966e+04
5.920409e+02,1.158264e+04
6.026475e+02,1.134283e+04
6.132540e+02,1.129388e+04
6.238606e+02,1.134420e+04
6.344672e+02,1.139652e+04
6.450737e+02,1.136641e+04
6.556803e+02,1.143033e+04
6.662869e+02,1.151127e+04
6.768934e+02,1.294091e+04
6.875000e+02,1.170277e+04
6.981066e+02,1.163631e+04
7.087131e+02,1.142837e+04
7.193197e+02,1.138888e+04
7.299263e+02,1.139391e+04
7.405328e+02,1.257811e+04
7.511394e+02,1.150950e+04
7.617460e+02,1.137038e+04
7.723525e+02,1.154732e+04
7.829591e+02,1.135353e+04
7.935657e+02,1.127942e+04
8.041722e+02,1.122055e+04
8.147788e+02,1.123128e+04
8.253854e+02,1.140982e+04
8.359919e+02,1.137802e+04
8.465985e+02,1.134753e+04
8.572051e+02,1.123826e+04
8.678116e+02,1.115233e+04
8.784182e+02,1.110669e+04
8.890248e+02,1.104284e+04
8.996313e+02,1.102524e+04
9.102379e+02,1.099397e+04
9.208445e+02,1.095573e+04
9.314510e+02,1.094545e+04
9.420576e+02,1.098270e+04
9.526642e+02,1.122666e+04
9.632708e+02,1.085475e+04
9.738773e+02,1.075041e+04
9.844839e+02,1.070930e+04
9.950905e+02,1.071531e+04
1.005697e+03,1.075325e+04
1.016304e+03,1.062508e+04
1.026910e+03,1.061891e+04
1.037517e+03,1.060193e+04
1.048123e+03,1.052380e+04
1.058730e+03,1.047872e+04
1.069336e+03,1.045169e+04
1.079943e+03,1.038477e+04
1.090550e+03,1.038284e+04
1.101156e+03,1.056426e+04
1.111763e+03,1.041196e+04
1.122369e+03,1.030876e+04
1.132976e+03,1.050302e+04
1.143582e+03,1.063608e+04
1.154189e+03,1.022567e+04
1.164796e+03,1.013895e+04
1.175402e+03,1.017178e+04
1.186009e+03,1.023312e+04
1.196615e+03,1.017908e+04
1.207222e+03,1.015821e+04
1.217828e+03,1.008505e+04
1.228435e+03,9.792405e+03
1.239042e+03,9.693391e+03
1.249648e+03,9.612753e+03
1.260255e+03,9.581316e+03
1.270861e+03,9.583404e+03
1.281468e+03,9.487870e+03
1.292074e+03,9.582285e+03
1.302681e+03,9.918284e+03
1.313287e+03,9.538238e+03
1.323894e+03,9.765844e+03
1.334501e+03,1.064638e+04
1.345107e+03,9.509308e+03
1.355714e+03,9.198719e+03
1.366320e+03,9.143253e+03
1.376927e+03,8.964846e+03
1.387533e+03,8.864721e+03
1.398140e+03,8.837903e+03
1.408747e+03,8.784643e+03
1.419353e+03,8.756593e+03
1.429960e+03,8.789182e+03
1.440566e+03,9.075926e+03
1.451173e+03,8.948024e+03
1.461779e+03,8.562108e+03
1.472386e+03,8.497545e+03
1.482993e+03,8.375504e+03
1.493599e+03,8.341693e+03
1.504206e+03,8.453187e+03
1.514812e+03,9.903312e+03
1.525419e+03,1.030182e+04
1.536025e+03,8.445824e+03
1.546632e+03,8.132687e+03
1.557239e+03,7.948937e+03
1.567845e+03,7.870814e+03
1.578452e+03,7.812948e+03
1.589058e+03,7.775409e+03
1.599665e+03,7.742580e+03
1.610271e+03,7.581317e+03
1.620878e+03,7.506435e+03
1.631484e+03,7.404959e+03
1.642091e+03,7.358938e+03
1.652698e+03,7.272446e+03
1.663304e+03,7.195304e+03
1.673911e+03,7.165355e+03
1.684517e+03,7.074589e+03
1.695124e+03,7.027377e+03
1.705730e+03,6.964906e+03
1.716337e+03,6.853863e+03
1.726944e+03,6.807494e+03
1.737550e+03,6.758539e+03
1.748157e+03,6.713432e+03
1.758763e+03,6.637065e+03
1.769370e+03,6.598188e+03
1.779976e+03,6.519030e+03
1.790583e+03,6.470580e+03
1.801190e+03,6.440160e+03
1.811796e+03,6.376073e+03
1.822403e+03,6.309786e+03
1.833009e+03,6.264315e+03
1.843616e+03,6.242436e+03
1.854222e+03,6.159753e+03
1.864829e+03,6.121300e+03
1.875436e+03,6.086030e+03
1.886042e+03,6.026632e+03
1.896649e+03,5.958392e+03
1.907255e+03,5.947529e+03
1.917862e+03,5.866868e+03
1.928468e+03,5.804994e+03
1.939075e+03,5.788303e+03
1.949682e+03,5.706412e+03
1.960288e+03,5.698721e+03
1.970895e+03,5.610850e+03
1.981501e+03,5.594333e+03
1.992108e+03,5.491829e+03
2.002714e+03,5.469519e+03
2.013321e+03,5.450223e+03
2.023927e+03,5.403119e+03
2.034534e+03,5.347391e+03
2.045141e+03,5.286904e+03
2.055747e+03,5.223284e+03
2.066354e+03,5.192449e+03
2.076960e+03,5.173123e+03
2.087567e+03,5.104304e+03
2.098173e+03,5.086055e+03
2.108780e+03,5.002090e+03
2.119387e+03,4.968302e+03
2.129993e+03,4.929175e+03
2.140600e+03,4.896053e+03
2.151206e+03,4.841912e+03
2.161813e+03,4.782475e+03
2.172419e+03,4.726475e+03
2.183026e+03,4.686755e+03
2.193633e+03,4.668904e+03
2.204239e+03,4.640937e+03
2.214846e+03,4.574900e+03
2.225452e+03,4.511047e+03
2.236059e+03,4.504820e+03
2.246666e+03,4.407119e+03
2.257272e+03,4.357317e+03
2.267879e+03,4.397174e+03
2.278485e+03,4.304734e+03
2.289092e+03,4.276675e+03
2.299698e+03,4.256835e+03
2.310305e+03,4.176000e+03
2.320911e+03,4.156040e+03
2.331518e+03,4.104182e+03
2.342125e+03,4.084698e+03
2.352731e+03,4.034829e+03
2.363338e+03,4.021407e+03
2.373944e+03,3.962445e+03
2.384551e+03,3.926603e+03
2.395157e+03,3.873760e+03
2.405764e+03,3.864857e+03
2.416370e+03,3.821562e+03
2.426977e+03,3.819666e+03
2.437584e+03,3.800791e+03
2.448190e+03,3.726125e+03
2.458797e+03,3.705267e+03
2.469403e+03,3.669964e+03
2.480010e+03,3.684293e+03
2.490616e+03,3.612998e+03
2.501223e+03,3.610800e+03
2.511830e+03,3.549306e+03
2.522436e+03,3.543206e+03
2.533043e+03,3.540420e+03
2.543649e+03,3.496136e+03
2.554256e+03,3.457080e+03
2.564863e+03,3.461700e+03
2.575469e+03,3.407638e+03
2.586075e+03,3.394427e+03
2.596682e+03,3.361621e+03
2.607289e+03,3.336016e+03
2.617895e+03,3.302140e+03
2.628502e+03,3.318706e+03
2.639108e+03,3.323617e+03
2.649715e+03,3.291042e+03
2.660322e+03,3.275942e+03
2.670928e+03,3.274730e+03
2.681535e+03,3.243448e+03
2.692141e+03,3.206798e+03
2.702748e+03,3.202225e+03
2.713354e+03,3.204089e+03
2.723961e+03,3.172337e+03
2.734568e+03,3.180358e+03
2.745174e+03,3.171909e+03
2.755781e+03,3.103448e+03
2.766387e+03,3.130032e+03
2.776994e+03,3.142695e+03
2.787600e+03,3.141071e+03
2.798207e+03,3.116141e+03
2.808813e+03,3.113586e+03
2.819420e+03,3.136686e+03
2.830027e+03,3.081356e+03
2.840633e+03,3.100632e+03
2.851240e+03,3.191789e+03
2.861846e+03,3.148719e+03
2.872453e+03,3.144961e+03
2.883059e+03,3.081596e+03
2.893666e+03,3.104931e+03
2.904273e+03,3.199243e+03
2.914879e+03,3.133861e+03
2.925486e+03,3.191780e+03
2.936092e+03,3.181875e+03
2.946699e+03,3.227711e+03
2.957305e+03,3.249705e+03
2.967912e+03,3.239347e+03
2.978519e+03,3.257895e+03
2.989125e+03,3.255657e+03
2.999732e+03,3.260042e+03
3.010338e+03,3.307259e+03
3.020945e+03,3.380153e+03
3.031552e+03,3.416906e+03
3.042158e+03,3.446906e+03
3.052764e+03,3.448061e+03
3.063371e+03,3.461502e+03
3.073978e+03,3.497815e+03
3.084584e+03,3.487551e+03
3.095191e+03,3.519523e+03
3.105797e+03,3.582367e+03
3.116404e+03,3.537215e+03
3.127010e+03,3.669640e+03
3.137617e+03,3.602131e+03
3.148224e+03,3.704941e+03
3.158830e+03,3.702656e+03
3.169437e+03,3.757406e+03
3.180043e+03,3.798004e+03
3.190650e+03,3.815050e+03
3.200292e+03,3.923862e+03