File: RAMAN_data/20012023_r1/blue fibre9.CSV
1.995979e+02,1.046964e+04
2.102045e+02,1.054658e+04
2.208110e+02,1.066058e+04
2.314176e+02,1.075159e+04
2.420242e+02,1.083454e+04
2.526307e+02,1.095972e+04
2.632373e+02,1.105562e+04
2.738439e+02,1.115154e+04
2.844504e+02,1.128402e+04
2.950570e+02,1.137532e+04
3.056636e+02,1.147431e+04
3.162701e+02,1.159601e+04
3.268767e+02,1.171076e+04
3.374833e+02,1.180784e+04
3.480898e+02,1.197636e+04
3.586964e+02,1.211193e+04
3.693030e+02,1.219936e+04
3.799095e+02,1.235504e+04
3.905161e+02,1.250335e+04
4.011227e+02,1.261709e+04
4.117292e+02,1.274472e+04
4.223358e+02,1.287724e+04
4.329424e+02,1.300393e+04
4.435490e+02,1.317664e+04
4.541555e+02,1.331778e+04
4.647621e+02,1.340945e+04
4.753687e+02,1.353410e+04
4.859752e+02,1.367048e+04
4.965818e+02,1.380458e+04
5.071884e+02,1.389094e+04
5.177949e+02,1.401878e+04
5.284015e+02,1.411754e+04
5.390081e+02,1.417050e+04
5.496146e+02,1.428900e+04
5.602212e+02,1.436940e+04
5.708278e+02,1.441442e+04
5.814343e+02,1.455359e+04
5.920409e+02,1.467274e+04
6.026475e+02,1.474913e+04
6.132540e+02,1.479843e+04
6.238606e+02,1.488985e+04
6.344672e+02,1.494905e+04
6.450737e+02,1.500892e+04
6.556803e+02,1.510199e+04
6.662869e+02,1.514338e+04
6.768934e+02,1.514694e+04
6.875000e+02,1.518803e+04
6.981066e+02,1.515228e+04
7.087131e+02,1.514847e+04
7.193197e+02,1.515504e+04
7.299263e+02,1.510487e+04
7.405328e+02,1.509843e+04
7.511394e+02,1.507730e+04
7.617460e+02,1.507495e+04
7.723525e+02,1.504796e+04
7.829591e+02,1.506908e+04
7.935657e+02,1.503556e+04
8.041722e+02,1.485528e+04
8.147788e+02,1.484261e+04
8.253854e+02,1.474633e+04
8.359919e+02,1.475491e+04
8.465985e+02,1.461769e+04
8.572051e+02,1.459642e+04
8.678116e+02,1.448671e+04
8.784182e+02,1.441842e+04
8.890248e+02,1.437983e+04
8.996313e+02,1.429830e+04
9.102379e+02,1.419143e+04
9.208445e+02,1.408237e+04
9.314510e+02,1.402911e+04
9.420576e+02,1.394966e+04
9.526642e+02,1.384832e+04
9.632708e+02,1.378233e+04
9.738773e+02,1.364949e+04
9.844839e+02,1.355567e+04
9.950905e+02,1.354139e+04
1.005697e+03,1.336437e+04
1.016304e+03,1.328686e+04
1.026910e+03,1.321860e+04
1.037517e+03,1.312383e+04
1.048123e+03,1.303507e+04
1.058730e+03,1.296014e+04
1.069336e+03,1.297037e+04
1.079943e+03,1.286325e+04
1.090550e+03,1.275304e+04
1.101156e+03,1.263120e+04
1.111763e+03,1.251620e+04
1.122369e+03,1.245977e+04
1.132976e+03,1.237518e+04
1.143582e+03,1.224657e+04
1.154189e+03,1.215778e+04
1.164796e+03,1.211515e+04
1.175402e+03,1.203835e+04
1.186009e+03,1.195965e+04
1.196615e+03,1.190660e+04
1.207222e+03,1.171061e+04
1.217828e+03,1.161129e+04
1.228435e+03,1.160963e+04
1.239042e+03,1.150623e+04
1.249648e+03,1.133695e+04
1.260255e+03,1.123695e+04
1.270861e+03,1.114889e+04
1.281468e+03,1.105481e+04
1.292074e+03,1.101638e+04
1.302681e+03,1.090954e+04
1.313287e+03,1.085137e+04
1.323894e+03,1.078777e+04
1.334501e+03,1.072629e+04
1.345107e+03,1.057294e+04
1.355714e+03,1.049942e+04
1.366320e+03,1.045619e+04
1.376927e+03,1.029994e+04
1.387533e+03,1.022089e+04
1.398140e+03,1.018400e+04
1.408747e+03,1.008063e+04
1.419353e+03,9.973229e+03
1.429960e+03,9.924431e+03
1.440566e+03,9.854828e+03
1.451173e+03,9.887547e+03
1.461779e+03,9.759285e+03
1.472386e+03,9.628495e+03
1.482993e+03,9.603156e+03
1.493599e+03,9.521060e+03
1.504206e+03,9.428932e+03
1.514812e+03,9.455572e+03
1.525419e+03,9.299096e+03
1.536025e+03,9.182128e+03
1.546632e+03,9.139556e+03
1.557239e+03,9.122118e+03
1.567845e+03,9.308364e+03
1.578452e+03,9.189487e+03
1.589058e+03,8.981483e+03
1.599665e+03,8.851628e+03
1.610271e+03,8.782302e+03
1.620878e+03,8.739290e+03
1.631484e+03,8.727181e+03
1.642091e+03,8.554226e+03
1.652698e+03,8.464549e+03
1.663304e+03,8.399669e+03
1.673911e+03,8.410015e+03
1.684517e+03,8.296433e+03
1.695124e+03,8.217463e+03
1.705730e+03,8.129431e+03
1.716337e+03,8.084830e+03
1.726944e+03,7.976450e+03
1.737550e+03,7.944608e+03
1.748157e+03,7.872187e+03
1.758763e+03,7.836826e+03
1.769370e+03,7.750751e+03
1.779976e+03,7.683743e+03
1.790583e+03,7.593578e+03
1.801190e+03,7.569811e+03
1.811796e+03,7.492546e+03
1.822403e+03,7.450241e+03
1.833009e+03,7.392278e+03
1.843616e+03,7.339656e+03
1.854222e+03,7.234469e+03
1.864829e+03,7.171226e+03
1.875436e+03,7.153722e+03
1.886042e+03,7.091264e+03
1.896649e+03,6.991566e+03
1.907255e+03,6.966509e+03
1.917862e+03,6.870976e+03
1.928468e+03,6.801417e+03
1.939075e+03,6.744222e+03
1.949682e+03,6.692654e+03
1.960288e+03,6.620831e+03
1.970895e+03,6.562708e+03
1.981501e+03,6.493026e+03
1.992108e+03,6.416210e+03
2.002714e+03,6.369026e+03
2.013321e+03,6.321194e+03
2.023927e+03,6.209755e+03
2.034534e+03,6.205925e+03
2.045141e+03,6.119529e+03
2.055747e+03,6.053644e+03
2.066354e+03,5.987750e+03
2.076960e+03,5.947202e+03
2.087567e+03,5.865995e+03
2.098173e+03,5.843781e+03
2.108780e+03,5.773669e+03
2.119387e+03,5.726024e+03
2.129993e+03,5.612663e+03
2.140600e+03,5.524738e+03
2.151206e+03,5.518243e+03
2.161813e+03,5.479864e+03
2.172419e+03,5.411805e+03
2.183026e+03,5.305290e+03
2.193633e+03,5.239632e+03
2.204239e+03,5.237696e+03
2.214846e+03,5.175164e+03
2.225452e+03,5.030049e+03
2.236059e+03,5.046724e+03
2.246666e+03,4.936479e+03
2.257272e+03,4.889369e+03
2.267879e+03,4.858412e+03
2.278485e+03,4.800009e+03
2.289092e+03,4.704407e+03
2.299698e+03,4.703338e+03
2.310305e+03,4.598766e+03
2.320911e+03,4.570913e+03
2.331518e+03,4.508178e+03
2.342125e+03,4.472340e+03
2.352731e+03,4.399852e+03
2.363338e+03,4.320269e+03
2.373944e+03,4.309676e+03
2.384551e+03,4.239940e+03
2.395157e+03,4.199623e+03
2.405764e+03,4.158056e+03
2.416370e+03,4.061302e+03
2.426977e+03,4.024578e+03
2.437584e+03,3.998656e+03
2.448190e+03,3.941308e+03
2.458797e+03,3.907830e+03
2.469403e+03,3.821873e+03
2.480010e+03,3.823364e+03
2.490616e+03,3.762831e+03
2.501223e+03,3.722395e+03
2.511830e+03,3.679590e+03
2.522436e+03,3.622749e+03
2.533043e+03,3.619843e+03
2.543649e+03,3.581954e+03
2.554256e+03,3.515007e+03
2.564863e+03,3.501765e+03
2.575469e+03,3.448703e+03
2.586075e+03,3.408378e+03
2.596682e+03,3.363449e+03
2.607289e+03,3.323149e+03
2.617895e+03,3.294398e+03
2.628502e+03,3.260628e+03
2.639108e+03,3.214712e+03
2.649715e+03,3.228424e+03
2.660322e+03,3.157386e+03
2.670928e+03,3.153046e+03
2.681535e+03,3.132573e+03
2.692141e+03,3.047335e+03
2.702748e+03,3.044842e+03
2.713354e+03,3.011309e+03
2.723961e+03,2.968595e+03
2.734568e+03,2.965678e+03
2.745174e+03,2.959204e+03
2.755781e+03,2.895827e+03
2.766387e+03,2.872415e+03
2.776994e+03,2.862972e+03
2.787600e+03,2.786670e+03
2.798207e+03,2.801854e+03
2.808813e+03,2.794203e+03
2.819420e+03,2.748723e+03
2.830027e+03,2.720284e+03
2.840633e+03,2.654626e+03
2.851240e+03,2.646526e+03
2.861846e+03,2.656428e+03
2.872453e+03,2.659892e+03
2.883059e+03,2.613975e+03
2.893666e+03,2.609570e+03
2.904273e+03,2.602469e+03
2.914879e+03,2.567433e+03
2.925486e+03,2.558766e+03
2.936092e+03,2.539783e+03
2.946699e+03,2.506814e+03
2.957305e+03,2.532233e+03
2.967912e+03,2.458311e+03
2.978519e+03,2.435559e+03
2.989125e+03,2.414658e+03
2.999732e+03,2.408583e+03
3.010338e+03,2.400981e+03
3.020945e+03,2.387357e+03
3.031552e+03,2.329972e+03
3.042158e+03,2.371549e+03
3.052764e+03,2.341529e+03
3.063371e+03,2.331524e+03
3.073978e+03,2.300421e+03
3.084584e+03,2.268201e+03
3.095191e+03,2.310735e+03
3.105797e+03,2.287395e+03
3.116404e+03,2.299777e+03
3.127010e+03,2.250643e+03
3.137617e+03,2.264219e+03
3.148224e+03,2.199446e+03
3.158830e+03,2.241096e+03
3.169437e+03,2.215940e+03
3.180043e+03,2.226290e+03
3.190650e+03,2.224959e+03
3.200292e+03,2.291911e+03