File: RAMAN_data/20012023_r1/blue fibre11.CSV
1.995979e+02,2.366311e+03
2.102045e+02,2.361926e+03
2.208110e+02,2.370725e+03
2.314176e+02,2.376292e+03
2.420242e+02,2.390886e+03
2.526307e+02,2.382916e+03
2.632373e+02,2.395538e+03
2.738439e+02,2.371760e+03
2.844504e+02,2.398453e+03
2.950570e+02,2.385792e+03
3.056636e+02,2.391746e+03
3.162701e+02,2.405228e+03
3.268767e+02,2.412269e+03
3.374833e+02,2.386060e+03
3.480898e+02,2.400591e+03
3.586964e+02,2.398865e+03
3.693030e+02,2.390190e+03
3.799095e+02,2.425446e+03
3.905161e+02,2.383944e+03
4.011227e+02,2.380057e+03
4.117292e+02,2.378776e+03
4.223358e+02,2.368998e+03
4.329424e+02,2.365929e+03
4.435490e+02,2.368360e+03
4.541555e+02,2.357116e+03
4.647621e+02,2.340278e+03
4.753687e+02,2.333939e+03
4.859752e+02,2.318267e+03
4.965818e+02,2.323465e+03
5.071884e+02,2.316446e+03
5.177949e+02,2.306894e+03
5.284015e+02,2.299593e+03
5.390081e+02,2.259402e+03
5.496146e+02,2.277094e+03
5.602212e+02,2.266330e+03
5.708278e+02,2.252849e+03
5.814343e+02,2.248768e+03
5.920409e+02,2.237553e+03
6.026475e+02,2.217302e+03
6.132540e+02,2.206039e+03
6.238606e+02,2.216806e+03
6.344672e+02,2.192456e+03
6.450737e+02,2.191961e+03
6.556803e+02,2.179306e+03
6.662869e+02,2.151391e+03
6.768934e+02,2.147068e+03
6.875000e+02,2.127614e+03
6.981066e+02,2.133585e+03
7.087131e+02,2.112025e+03
7.193197e+02,2.108411e+03
7.299263e+02,2.096337e+03
7.405328e+02,2.072003e+03
7.511394e+02,2.058953e+03
7.617460e+02,2.038329e+03
7.723525e+02,2.039289e+03
7.829591e+02,2.028501e+03
7.935657e+02,2.011646e+03
8.041722e+02,2.000531e+03
8.147788e+02,1.982711e+03
8.253854e+02,1.979361e+03
8.359919e+02,1.961063e+03
8.465985e+02,1.956050e+03
8.572051e+02,1.931320e+03
8.678116e+02,1.926706e+03
8.784182e+02,1.919759e+03
8.890248e+02,1.918841e+03
8.996313e+02,1.885226e+03
9.102379e+02,1.875193e+03
9.208445e+02,1.836578e+03
9.314510e+02,1.844532e+03
9.420576e+02,1.825105e+03
9.526642e+02,1.824456e+03
9.632708e+02,1.822704e+03
9.738773e+02,1.789069e+03
9.844839e+02,1.779617e+03
9.950905e+02,1.776254e+03
1.005697e+03,1.755452e+03
1.016304e+03,1.748460e+03
1.026910e+03,1.740206e+03
1.037517e+03,1.737429e+03
1.048123e+03,1.712705e+03
1.058730e+03,1.703802e+03
1.069336e+03,1.688616e+03
1.079943e+03,1.682525e+03
1.090550e+03,1.711591e+03
1.101156e+03,1.685609e+03
1.111763e+03,1.676618e+03
1.122369e+03,1.658545e+03
1.132976e+03,1.616940e+03
1.143582e+03,1.637121e+03
1.154189e+03,1.607514e+03
1.164796e+03,1.594046e+03
1.175402e+03,1.566498e+03
1.186009e+03,1.567335e+03
1.196615e+03,1.556294e+03
1.207222e+03,1.546855e+03
1.217828e+03,1.527351e+03
1.228435e+03,1.531179e+03
1.239042e+03,1.524675e+03
1.249648e+03,1.512103e+03
1.260255e+03,1.492492e+03
1.270861e+03,1.499974e+03
1.281468e+03,1.479368e+03
1.292074e+03,1.478313e+03
1.302681e+03,1.454130e+03
1.313287e+03,1.453130e+03
1.323894e+03,1.463904e+03
1.334501e+03,1.448495e+03
1.345107e+03,1.426536e+03
1.355714e+03,1.420377e+03
1.366320e+03,1.423305e+03
1.376927e+03,1.416951e+03
1.387533e+03,1.389774e+03
1.398140e+03,1.390410e+03
1.408747e+03,1.374334e+03
1.419353e+03,1.366507e+03
1.429960e+03,1.354664e+03
1.440566e+03,1.344892e+03
1.451173e+03,1.319850e+03
1.461779e+03,1.327551e+03
1.472386e+03,1.311404e+03
1.482993e+03,1.292328e+03
1.493599e+03,1.281968e+03
1.504206e+03,1.278099e+03
1.514812e+03,1.266995e+03
1.525419e+03,1.261115e+03
1.536025e+03,1.272718e+03
1.546632e+03,1.243924e+03
1.557239e+03,1.249091e+03
1.567845e+03,1.230680e+03
1.578452e+03,1.222425e+03
1.589058e+03,1.213427e+03
1.599665e+03,1.193293e+03
1.610271e+03,1.200739e+03
1.620878e+03,1.188840e+03
1.631484e+03,1.178303e+03
1.642091e+03,1.165782e+03
1.652698e+03,1.169105e+03
1.663304e+03,1.152464e+03
1.673911e+03,1.145555e+03
1.684517e+03,1.130317e+03
1.695124e+03,1.118584e+03
1.705730e+03,1.129188e+03
1.716337e+03,1.094070e+03
1.726944e+03,1.088453e+03
1.737550e+03,1.092821e+03
1.748157e+03,1.076100e+03
1.758763e+03,1.063596e+03
1.769370e+03,1.059917e+03
1.779976e+03,1.042006e+03
1.790583e+03,1.037614e+03
1.801190e+03,1.035532e+03
1.811796e+03,1.030081e+03
1.822403e+03,1.007813e+03
1.833009e+03,9.933082e+02
1.843616e+03,1.000654e+03
1.854222e+03,9.883405e+02
1.864829e+03,9.692051e+02
1.875436e+03,9.683703e+02
1.886042e+03,9.519366e+02
1.896649e+03,9.457789e+02
1.907255e+03,9.343040e+02
1.917862e+03,9.324142e+02
1.928468e+03,9.143066e+02
1.939075e+03,9.110592e+02
1.949682e+03,9.000948e+02
1.960288e+03,8.920192e+02
1.970895e+03,8.823478e+02
1.981501e+03,8.696208e+02
1.992108e+03,8.699203e+02
2.002714e+03,8.546877e+02
2.013321e+03,8.404648e+02
2.023927e+03,8.405214e+02
2.034534e+03,8.282405e+02
2.045141e+03,8.229649e+02
2.055747e+03,8.037178e+02
2.066354e+03,8.003625e+02
2.076960e+03,8.008801e+02
2.087567e+03,7.784792e+02
2.098173e+03,7.877827e+02
2.108780e+03,7.687500e+02
2.119387e+03,7.557112e+02
2.129993e+03,7.394698e+02
2.140600e+03,7.488899e+02
2.151206e+03,7.396915e+02
2.161813e+03,7.214026e+02
2.172419e+03,7.052138e+02
2.183026e+03,7.085332e+02
2.193633e+03,6.938561e+02
2.204239e+03,6.937123e+02
2.214846e+03,6.944828e+02
2.225452e+03,6.792271e+02
2.236059e+03,6.642359e+02
2.246666e+03,6.633762e+02
2.257272e+03,6.539854e+02
2.267879e+03,6.434700e+02
2.278485e+03,6.448876e+02
2.289092e+03,6.207546e+02
2.299698e+03,6.280559e+02
2.310305e+03,6.142393e+02
2.320911e+03,6.109055e+02
2.331518e+03,5.989720e+02
2.342125e+03,5.874488e+02
2.352731e+03,5.865676e+02
2.363338e+03,5.891757e+02
2.373944e+03,5.784778e+02
2.384551e+03,5.627343e+02
2.395157e+03,5.584471e+02
2.405764e+03,5.662490e+02
2.416370e+03,5.457022e+02
2.426977e+03,5.415798e+02
2.437584e+03,5.395668e+02
2.448190e+03,5.336151e+02
2.458797e+03,5.207859e+02
2.469403e+03,5.177783e+02
2.480010e+03,5.082676e+02
2.490616e+03,5.094987e+02
2.501223e+03,4.950143e+02
2.511830e+03,4.982203e+02
2.522436e+03,4.818406e+02
2.533043e+03,4.877393e+02
2.543649e+03,4.877042e+02
2.554256e+03,4.875782e+02
2.564863e+03,4.773532e+02
2.575469e+03,4.768268e+02
2.586075e+03,4.584246e+02
2.596682e+03,4.672137e+02
2.607289e+03,4.431480e+02
2.617895e+03,4.536508e+02
2.628502e+03,4.524598e+02
2.639108e+03,4.471878e+02
2.649715e+03,4.332630e+02
2.660322e+03,4.425989e+02
2.670928e+03,4.364680e+02
2.681535e+03,4.207503e+02
2.692141e+03,4.216820e+02
2.702748e+03,4.322804e+02
2.713354e+03,4.221520e+02
2.723961e+03,4.179037e+02
2.734568e+03,4.130684e+02
2.745174e+03,4.201559e+02
2.755781e+03,4.128001e+02
2.766387e+03,3.935225e+02
2.776994e+03,4.028319e+02
2.787600e+03,3.789859e+02
2.798207e+03,4.108960e+02
2.808813e+03,3.911977e+02
2.819420e+03,3.816064e+02
2.830027e+03,3.935351e+02
2.840633e+03,3.793809e+02
2.851240e+03,3.998043e+02
2.861846e+03,4.087010e+02
2.872453e+03,4.033185e+02
2.883059e+03,4.034011e+02
2.893666e+03,4.179710e+02
2.904273e+03,4.247647e+02
2.914879e+03,4.031958e+02
2.925486e+03,3.816654e+02
2.936092e+03,3.751435e+02
2.946699e+03,3.836152e+02
2.957305e+03,4.185139e+02
2.967912e+03,3.689422e+02
2.978519e+03,3.566396e+02
2.989125e+03,3.490183e+02
2.999732e+03,3.362252e+02
3.010338e+03,3.414344e+02
3.020945e+03,3.436708e+02
3.031552e+03,3.274555e+02
3.042158e+03,3.502536e+02
3.052764e+03,3.430572e+02
3.063371e+03,3.453674e+02
3.073978e+03,3.276795e+02
3.084584e+03,3.333026e+02
3.095191e+03,3.522980e+02
3.105797e+03,3.318757e+02
3.116404e+03,3.636071e+02
3.127010e+03,3.443313e+02
3.137617e+03,3.754999e+02
3.148224e+03,3.284478e+02
3.158830e+03,3.395792e+02
3.169437e+03,3.611990e+02
3.180043e+03,3.310856e+02
3.190650e+03,3.285254e+02
3.200292e+03,3.444290e+02