File: RAMAN_data/20012023_r1/blue fibre13.CSV
1.995979e+02,9.628316e+03
2.102045e+02,9.704514e+03
2.208110e+02,9.771550e+03
2.314176e+02,9.785431e+03
2.420242e+02,9.833413e+03
2.526307e+02,9.937575e+03
2.632373e+02,9.938326e+03
2.738439e+02,9.969338e+03
2.844504e+02,1.004978e+04
2.950570e+02,1.004385e+04
3.056636e+02,1.002256e+04
3.162701e+02,1.008113e+04
3.268767e+02,1.008635e+04
3.374833e+02,1.005786e+04
3.480898e+02,1.007889e+04
3.586964e+02,1.011464e+04
3.693030e+02,1.008536e+04
3.799095e+02,1.010983e+04
3.905161e+02,1.010183e+04
4.011227e+02,1.007508e+04
4.117292e+02,1.005708e+04
4.223358e+02,1.007279e+04
4.329424e+02,1.003212e+04
4.435490e+02,1.002644e+04
4.541555e+02,1.002418e+04
4.647621e+02,9.960376e+03
4.753687e+02,9.948959e+03
4.859752e+02,9.989987e+03
4.965818e+02,9.933100e+03
5.071884e+02,9.890330e+03
5.177949e+02,9.871333e+03
5.284015e+02,9.832941e+03
5.390081e+02,9.774606e+03
5.496146e+02,9.769513e+03
5.602212e+02,9.755696e+03
5.708278e+02,9.642472e+03
5.814343e+02,9.648513e+03
5.920409e+02,9.640096e+03
6.026475e+02,9.585350e+03
6.132540e+02,9.553981e+03
6.238606e+02,9.552452e+03
6.344672e+02,9.476484e+03
6.450737e+02,9.442146e+03
6.556803e+02,9.390596e+03
6.662869e+02,9.346423e+03
6.768934e+02,9.288691e+03
6.875000e+02,9.246838e+03
6.981066e+02,9.229034e+03
7.087131e+02,9.139240e+03
7.193197e+02,9.136574e+03
7.299263e+02,9.104589e+03
7.405328e+02,9.028853e+03
7.511394e+02,9.010013e+03
7.617460e+02,8.917071e+03
7.723525e+02,8.881787e+03
7.829591e+02,8.848154e+03
7.935657e+02,8.815328e+03
8.041722e+02,8.755464e+03
8.147788e+02,8.704818e+03
8.253854e+02,8.669995e+03
8.359919e+02,8.609319e+03
8.465985e+02,8.547518e+03
8.572051e+02,8.522729e+03
8.678116e+02,8.459204e+03
8.784182e+02,8.390843e+03
8.890248e+02,8.334645e+03
8.996313e+02,8.332824e+03
9.102379e+02,8.250466e+03
9.208445e+02,8.149142e+03
9.314510e+02,8.139396e+03
9.420576e+02,8.103032e+03
9.526642e+02,8.036567e+03
9.632708e+02,8.014819e+03
9.738773e+02,7.916621e+03
9.844839e+02,7.862136e+03
9.950905e+02,7.869736e+03
1.005697e+03,7.838591e+03
1.016304e+03,7.750870e+03
1.026910e+03,7.691284e+03
1.037517e+03,7.708177e+03
1.048123e+03,7.631403e+03
1.058730e+03,7.595258e+03
1.069336e+03,7.550267e+03
1.079943e+03,7.492705e+03
1.090550e+03,7.524280e+03
1.101156e+03,7.451646e+03
1.111763e+03,7.390228e+03
1.122369e+03,7.420695e+03
1.132976e+03,7.367723e+03
1.143582e+03,7.307087e+03
1.154189e+03,7.282002e+03
1.164796e+03,7.216061e+03
1.175402e+03,7.161313e+03
1.186009e+03,7.121029e+03
1.196615e+03,7.088773e+03
1.207222e+03,7.066550e+03
1.217828e+03,7.027792e+03
1.228435e+03,6.971034e+03
1.239042e+03,6.923767e+03
1.249648e+03,6.843881e+03
1.260255e+03,6.828817e+03
1.270861e+03,6.819169e+03
1.281468e+03,6.809971e+03
1.292074e+03,6.759706e+03
1.302681e+03,6.699049e+03
1.313287e+03,6.642019e+03
1.323894e+03,6.633639e+03
1.334501e+03,6.622146e+03
1.345107e+03,6.586502e+03
1.355714e+03,6.538038e+03
1.366320e+03,6.519127e+03
1.376927e+03,6.445963e+03
1.387533e+03,6.378333e+03
1.398140e+03,6.369817e+03
1.408747e+03,6.305764e+03
1.419353e+03,6.288867e+03
1.429960e+03,6.258837e+03
1.440566e+03,6.153634e+03
1.451173e+03,6.126555e+03
1.461779e+03,6.101897e+03
1.472386e+03,6.053296e+03
1.482993e+03,6.007785e+03
1.493599e+03,5.991487e+03
1.504206e+03,5.955407e+03
1.514812e+03,5.936322e+03
1.525419e+03,5.889884e+03
1.536025e+03,5.828675e+03
1.546632e+03,5.793799e+03
1.557239e+03,5.758297e+03
1.567845e+03,5.773157e+03
1.578452e+03,5.732478e+03
1.589058e+03,5.689317e+03
1.599665e+03,5.642354e+03
1.610271e+03,5.598750e+03
1.620878e+03,5.584263e+03
1.631484e+03,5.509055e+03
1.642091e+03,5.488110e+03
1.652698e+03,5.407031e+03
1.663304e+03,5.355825e+03
1.673911e+03,5.366007e+03
1.684517e+03,5.279421e+03
1.695124e+03,5.278158e+03
1.705730e+03,5.215268e+03
1.716337e+03,5.161680e+03
1.726944e+03,5.141575e+03
1.737550e+03,5.102696e+03
1.748157e+03,5.044449e+03
1.758763e+03,5.012464e+03
1.769370e+03,4.999170e+03
1.779976e+03,4.927960e+03
1.790583e+03,4.912869e+03
1.801190e+03,4.888182e+03
1.811796e+03,4.836386e+03
1.822403e+03,4.779289e+03
1.833009e+03,4.782896e+03
1.843616e+03,4.706287e+03
1.854222e+03,4.653576e+03
1.864829e+03,4.639732e+03
1.875436e+03,4.613726e+03
1.886042e+03,4.536674e+03
1.896649e+03,4.499722e+03
1.907255e+03,4.453627e+03
1.917862e+03,4.402037e+03
1.928468e+03,4.371631e+03
1.939075e+03,4.371380e+03
1.949682e+03,4.290839e+03
1.960288e+03,4.247697e+03
1.970895e+03,4.236646e+03
1.981501e+03,4.170338e+03
1.992108e+03,4.134113e+03
2.002714e+03,4.086495e+03
2.013321e+03,4.018733e+03
2.023927e+03,4.014069e+03
2.034534e+03,3.985457e+03
2.045141e+03,3.908326e+03
2.055747e+03,3.874346e+03
2.066354e+03,3.847804e+03
2.076960e+03,3.806987e+03
2.087567e+03,3.750271e+03
2.098173e+03,3.726719e+03
2.108780e+03,3.695092e+03
2.119387e+03,3.637445e+03
2.129993e+03,3.569060e+03
2.140600e+03,3.578926e+03
2.151206e+03,3.506718e+03
2.161813e+03,3.500110e+03
2.172419e+03,3.442783e+03
2.183026e+03,3.408813e+03
2.193633e+03,3.365567e+03
2.204239e+03,3.341263e+03
2.214846e+03,3.317625e+03
2.225452e+03,3.228302e+03
2.236059e+03,3.214875e+03
2.246666e+03,3.170873e+03
2.257272e+03,3.134087e+03
2.267879e+03,3.093873e+03
2.278485e+03,3.054983e+03
2.289092e+03,3.035862e+03
2.299698e+03,2.976076e+03
2.310305e+03,2.937596e+03
2.320911e+03,2.897962e+03
2.331518e+03,2.887812e+03
2.342125e+03,2.840423e+03
2.352731e+03,2.810576e+03
2.363338e+03,2.790053e+03
2.373944e+03,2.758412e+03
2.384551e+03,2.728480e+03
2.395157e+03,2.687638e+03
2.405764e+03,2.667860e+03
2.416370e+03,2.633269e+03
2.426977e+03,2.625208e+03
2.437584e+03,2.585105e+03
2.448190e+03,2.538679e+03
2.458797e+03,2.494448e+03
2.469403e+03,2.477890e+03
2.480010e+03,2.488973e+03
2.490616e+03,2.446971e+03
2.501223e+03,2.413108e+03
2.511830e+03,2.375794e+03
2.522436e+03,2.396404e+03
2.533043e+03,2.361932e+03
2.543649e+03,2.323650e+03
2.554256e+03,2.281063e+03
2.564863e+03,2.281286e+03
2.575469e+03,2.254958e+03
2.586075e+03,2.233419e+03
2.596682e+03,2.218096e+03
2.607289e+03,2.180623e+03
2.617895e+03,2.125626e+03
2.628502e+03,2.157730e+03
2.639108e+03,2.111950e+03
2.649715e+03,2.101067e+03
2.660322e+03,2.065656e+03
2.670928e+03,2.068181e+03
2.681535e+03,2.038729e+03
2.692141e+03,2.014805e+03
2.702748e+03,2.018368e+03
2.713354e+03,1.983002e+03
2.723961e+03,1.947413e+03
2.734568e+03,1.947770e+03
2.745174e+03,1.963510e+03
2.755781e+03,1.924436e+03
2.766387e+03,1.889202e+03
2.776994e+03,1.872811e+03
2.787600e+03,1.873659e+03
2.798207e+03,1.880032e+03
2.808813e+03,1.833156e+03
2.819420e+03,1.822260e+03
2.830027e+03,1.803093e+03
2.840633e+03,1.790893e+03
2.851240e+03,1.796948e+03
2.861846e+03,1.786822e+03
2.872453e+03,1.805964e+03
2.883059e+03,1.766224e+03
2.893666e+03,1.802500e+03
2.904273e+03,1.762506e+03
2.914879e+03,1.771095e+03
2.925486e+03,1.739707e+03
2.936092e+03,1.676909e+03
2.946699e+03,1.695893e+03
2.957305e+03,1.719715e+03
2.967912e+03,1.661744e+03
2.978519e+03,1.617717e+03
2.989125e+03,1.641831e+03
2.999732e+03,1.629961e+03
3.010338e+03,1.573830e+03
3.020945e+03,1.552971e+03
3.031552e+03,1.587376e+03
3.042158e+03,1.605359e+03
3.052764e+03,1.530567e+03
3.063371e+03,1.556941e+03
3.073978e+03,1.569583e+03
3.084584e+03,1.519269e+03
3.095191e+03,1.542247e+03
3.105797e+03,1.541000e+03
3.116404e+03,1.577092e+03
3.127010e+03,1.535289e+03
3.137617e+03,1.536197e+03
3.148224e+03,1.536420e+03
3.158830e+03,1.490674e+03
3.169437e+03,1.540263e+03
3.180043e+03,1.518793e+03
3.190650e+03,1.513489e+03
3.200292e+03,1.605389e+03