File: RAMAN_data/20012023_r1/blue fibre1.CSV
1.995979e+02,1.046964e+04
2.102045e+02,1.054658e+04
2.208110e+02,1.066058e+04
2.314176e+02,1.075159e+04
2.420242e+02,1.083454e+04
2.526307e+02,1.095972e+04
2.632373e+02,1.105562e+04
2.738439e+02,1.115154e+04
2.844504e+02,1.128402e+04
2.950570e+02,1.137532e+04
3.056636e+02,1.147431e+04
3.162701e+02,1.159601e+04
3.268767e+02,1.171076e+04
3.374833e+02,1.180784e+04
3.480898e+02,1.197636e+04
3.586964e+02,1.211193e+04
3.693030e+02,1.219936e+04
3.799095e+02,1.235504e+04
3.905161e+02,1.250335e+04
4.011227e+02,1.261709e+04
4.117292e+02,1.274472e+04
4.223358e+02,1.287724e+04
4.329424e+02,1.300393e+04
4.435490e+02,1.317664e+04
4.541555e+02,1.331778e+04
4.647621e+02,1.340945e+04
4.753687e+02,1.353410e+04
4.859752e+02,1.367048e+04
4.965818e+02,1.380458e+04
5.071884e+02,1.389094e+04
5.177949e+02,1.401878e+04
5.284015e+02,1.411754e+04
5.390081e+02,1.417050e+04
5.496146e+02,1.428900e+04
5.602212e+02,1.436940e+04
5.708278e+02,1.441442e+04
5.814343e+02,1.455359e+04
5.920409e+02,1.467274e+04
6.026475e+02,1.474913e+04
6.132540e+02,1.479843e+04
6.238606e+02,1.488985e+04
6.344672e+02,1.494905e+04
6.450737e+02,1.500892e+04
6.556803e+02,1.510486e+04
6.662869e+02,1.514652e+04
6.768934e+02,1.515402e+04
6.875000e+02,1.519729e+04
6.981066e+02,1.526940e+04
7.087131e+02,1.524811e+04
7.193197e+02,1.528880e+04
7.299263e+02,1.527675e+04
7.405328e+02,1.526814e+04
7.511394e+02,1.525585e+04
7.617460e+02,1.528184e+04
7.723525e+02,1.518254e+04
7.829591e+02,1.518655e+04
7.935657e+02,1.517511e+04
8.041722e+02,1.510259e+04
8.147788e+02,1.510239e+04
8.253854e+02,1.507502e+04
8.359919e+02,1.500431e+04
8.465985e+02,1.490606e+04
8.572051e+02,1.483683e+04
8.678116e+02,1.475676e+04
8.784182e+02,1.468225e+04
8.890248e+02,1.463441e+04
8.996313e+02,1.452496e+04
9.102379e+02,1.445255e+04
9.208445e+02,1.435686e+04
9.314510e+02,1.430841e+04
9.420576e+02,1.422252e+04
9.526642e+02,1.410908e+04
9.632708e+02,1.397930e+04
9.738773e+02,1.382912e+04
9.844839e+02,1.373304e+04
9.950905e+02,1.366892e+04
1.005697e+03,1.352145e+04
1.016304e+03,1.341451e+04
1.026910e+03,1.335846e+04
1.037517e+03,1.323569e+04
1.048123e+03,1.311863e+04
1.058730e+03,1.306401e+04
1.069336e+03,1.300415e+04
1.079943e+03,1.289903e+04
1.090550e+03,1.282595e+04
1.101156e+03,1.272673e+04
1.111763e+03,1.262101e+04
1.122369e+03,1.257191e+04
1.132976e+03,1.251656e+04
1.143582e+03,1.240975e+04
1.154189e+03,1.235424e+04
1.164796e+03,1.231307e+04
1.175402e+03,1.221976e+04
1.186009e+03,1.216541e+04
1.196615e+03,1.216027e+04
1.207222e+03,1.208390e+04
1.217828e+03,1.206533e+04
1.228435e+03,1.209763e+04
1.239042e+03,1.207756e+04
1.249648e+03,1.205246e+04
1.260255e+03,1.209609e+04
1.270861e+03,1.211051e+04
1.281468e+03,1.208050e+04
1.292074e+03,1.213719e+04
1.302681e+03,1.218566e+04
1.313287e+03,1.220867e+04
1.323894e+03,1.225404e+04
1.334501e+03,1.234862e+04
1.345107e+03,1.237413e+04
1.355714e+03,1.244750e+04
1.366320e+03,1.253539e+04
1.376927e+03,1.259968e+04
1.387533e+03,1.272866e+04
1.398140e+03,1.286956e+04
1.408747e+03,1.296993e+04
1.419353e+03,1.312374e+04
1.429960e+03,1.328490e+04
1.440566e+03,1.339520e+04
1.451173e+03,1.354278e+04
1.461779e+03,1.377436e+04
1.472386e+03,1.393552e+04
1.482993e+03,1.412307e+04
1.493599e+03,1.435119e+04
1.504206e+03,1.459644e+04
1.514812e+03,1.480763e+04
1.525419e+03,1.511550e+04
1.536025e+03,1.537480e+04
1.546632e+03,1.561372e+04
1.557239e+03,1.594515e+04
1.567845e+03,1.624655e+04
1.578452e+03,1.652163e+04
1.589058e+03,1.681156e+04
1.599665e+03,1.715709e+04
1.610271e+03,1.746375e+04
1.620878e+03,1.779500e+04
1.631484e+03,1.814701e+04
1.642091e+03,1.852139e+04
1.652698e+03,1.887630e+04
1.663304e+03,1.921766e+04
1.673911e+03,1.961131e+04
1.684517e+03,1.995781e+04
1.695124e+03,2.039503e+04
1.705730e+03,2.081964e+04
1.716337e+03,2.117459e+04
1.726944e+03,2.159301e+04
1.737550e+03,2.203576e+04
1.748157e+03,2.237037e+04
1.758763e+03,2.277050e+04
1.769370e+03,2.317957e+04
1.779976e+03,2.351696e+04
1.790583e+03,2.386369e+04
1.801190e+03,2.424493e+04
1.811796e+03,2.453788e+04
1.822403e+03,2.483762e+04
1.833009e+03,2.520761e+04
1.843616e+03,2.556312e+04
1.854222e+03,2.574513e+04
1.864829e+03,2.611900e+04
1.875436e+03,2.646860e+04
1.886042e+03,2.666502e+04
1.896649e+03,2.698379e+04
1.907255e+03,2.728233e+04
1.917862e+03,2.729350e+04
1.928468e+03,2.744157e+04
1.939075e+03,2.728974e+04
1.949682e+03,2.704772e+04
1.960288e+03,2.684819e+04
1.970895e+03,2.663695e+04
1.981501e+03,2.634533e+04
1.992108e+03,2.608946e+04
2.002714e+03,2.602132e+04
2.013321e+03,2.573763e+04
2.023927e+03,2.534988e+04
2.034534e+03,2.508647e+04
2.045141e+03,2.483359e+04
2.055747e+03,2.457396e+04
2.066354e+03,2.434884e+04
2.076960e+03,2.404818e+04
2.087567e+03,2.383011e+04
2.098173e+03,2.363139e+04
2.108780e+03,2.341825e+04
2.119387e+03,2.310607e+04
2.129993e+03,2.280874e+04
2.140600e+03,2.264824e+04
2.151206e+03,2.247278e+04
2.161813e+03,2.219089e+04
2.172419e+03,2.198982e+04
2.183026e+03,2.164061e+04
2.193633e+03,2.141928e+04
2.204239e+03,2.121374e+04
2.214846e+03,2.095972e+04
2.225452e+03,2.055857e+04
2.236059e+03,2.042265e+04
2.246666e+03,2.014868e+04
2.257272e+03,1.984097e+04
2.267879e+03,1.968773e+04
2.278485e+03,1.943205e+04
2.289092e+03,1.914072e+04
2.299698e+03,1.905030e+04
2.310305e+03,1.873386e+04
2.320911e+03,1.849837e+04
2.331518e+03,1.834749e+04
2.342125e+03,1.809843e+04
2.352731e+03,1.780349e+04
2.363338e+03,1.768315e+04
2.373944e+03,1.748512e+04
2.384551e+03,1.724555e+04
2.395157e+03,1.710473e+04
2.405764e+03,1.687357e+04
2.416370e+03,1.657526e+04
2.426977e+03,1.640627e+04
2.437584e+03,1.623409e+04
2.448190e+03,1.600203e+04
2.458797e+03,1.579188e+04
2.469403e+03,1.558909e+04
2.480010e+03,1.549054e+04
2.490616e+03,1.521482e+04
2.501223e+03,1.509387e+04
2.511830e+03,1.486089e+04
2.522436e+03,1.467953e+04
2.533043e+03,1.451073e+04
2.543649e+03,1.438237e+04
2.554256e+03,1.411458e+04
2.564863e+03,1.405002e+04
2.575469e+03,1.393913e+04
2.586075e+03,1.372323e+04
2.596682e+03,1.358271e+04
2.607289e+03,1.345456e+04
2.617895e+03,1.330582e+04
2.628502e+03,1.315277e+04
2.639108e+03,1.300600e+04
2.649715e+03,1.292330e+04
2.660322e+03,1.266625e+04
2.670928e+03,1.260407e+04
2.681535e+03,1.245449e+04
2.692141e+03,1.235074e+04
2.702748e+03,1.223859e+04
2.713354e+03,1.208945e+04
2.723961e+03,1.201227e+04
2.734568e+03,1.188666e+04
2.745174e+03,1.170694e+04
2.755781e+03,1.164025e+04
2.766387e+03,1.147938e+04
2.776994e+03,1.135843e+04
2.787600e+03,1.128721e+04
2.798207e+03,1.117612e+04
2.808813e+03,1.101245e+04
2.819420e+03,1.098128e+04
2.830027e+03,1.081511e+04
2.840633e+03,1.083298e+04
2.851240e+03,1.068354e+04
2.861846e+03,1.058768e+04
2.872453e+03,1.054367e+04
2.883059e+03,1.043335e+04
2.893666e+03,1.036391e+04
2.904273e+03,1.033062e+04
2.914879e+03,1.018018e+04
2.925486e+03,1.019192e+04
2.936092e+03,9.971466e+03
2.946699e+03,9.983638e+03
2.957305e+03,1.000288e+04
2.967912e+03,9.761556e+03
2.978519e+03,9.794054e+03
2.989125e+03,9.653941e+03
2.999732e+03,9.578326e+03
3.010338e+03,9.573395e+03
3.020945e+03,9.428278e+03
3.031552e+03,9.424547e+03
3.042158e+03,9.381168e+03
3.052764e+03,9.372094e+03
3.063371e+03,9.313384e+03
3.073978e+03,9.250404e+03
3.084584e+03,9.239065e+03
3.095191e+03,9.165960e+03
3.105797e+03,9.183061e+03
3.116404e+03,9.130176e+03
3.127010e+03,9.129894e+03
3.137617e+03,9.099229e+03
3.148224e+03,9.027131e+03
3.158830e+03,8.956348e+03
3.169437e+03,9.015504e+03
3.180043e+03,9.033399e+03
3.190650e+03,9.075467e+03
3.200292e+03,9.146331e+03