File: RAMAN_data/20012023_r1/blue fibre8.CSV
1.995979e+02,2.283414e+03
2.102045e+02,2.287756e+03
2.208110e+02,2.315110e+03
2.314176e+02,2.315995e+03
2.420242e+02,2.315124e+03
2.526307e+02,2.341183e+03
2.632373e+02,2.334544e+03
2.738439e+02,2.329626e+03
2.844504e+02,2.350826e+03
2.950570e+02,2.351784e+03
3.056636e+02,2.349481e+03
3.162701e+02,2.359210e+03
3.268767e+02,2.363735e+03
3.374833e+02,2.348947e+03
3.480898e+02,2.375906e+03
3.586964e+02,2.370742e+03
3.693030e+02,2.368833e+03
3.799095e+02,2.398282e+03
3.905161e+02,2.368754e+03
4.011227e+02,2.370073e+03
4.117292e+02,2.349379e+03
4.223358e+02,2.364926e+03
4.329424e+02,2.355878e+03
4.435490e+02,2.355561e+03
4.541555e+02,2.359516e+03
4.647621e+02,2.326995e+03
4.753687e+02,2.339155e+03
4.859752e+02,2.358645e+03
4.965818e+02,2.343397e+03
5.071884e+02,2.313720e+03
5.177949e+02,2.336015e+03
5.284015e+02,2.305278e+03
5.390081e+02,2.299576e+03
5.496146e+02,2.296357e+03
5.602212e+02,2.291124e+03
5.708278e+02,2.266056e+03
5.814343e+02,2.272003e+03
5.920409e+02,2.275601e+03
6.026475e+02,2.264189e+03
6.132540e+02,2.256232e+03
6.238606e+02,2.236891e+03
6.344672e+02,2.239636e+03
6.450737e+02,2.209346e+03
6.556803e+02,2.214625e+03
6.662869e+02,2.209034e+03
6.768934e+02,2.193721e+03
6.875000e+02,2.190433e+03
6.981066e+02,2.186762e+03
7.087131e+02,2.155315e+03
7.193197e+02,2.155744e+03
7.299263e+02,2.143094e+03
7.405328e+02,2.139001e+03
7.511394e+02,2.111506e+03
7.617460e+02,2.120967e+03
7.723525e+02,2.102069e+03
7.829591e+02,2.103071e+03
7.935657e+02,2.084381e+03
8.041722e+02,2.059580e+03
8.147788e+02,2.064870e+03
8.253854e+02,2.058206e+03
8.359919e+02,2.046470e+03
8.465985e+02,2.027545e+03
8.572051e+02,2.032754e+03
8.678116e+02,2.009440e+03
8.784182e+02,1.994977e+03
8.890248e+02,2.001888e+03
8.996313e+02,1.987510e+03
9.102379e+02,1.969273e+03
9.208445e+02,1.951128e+03
9.314510e+02,1.943547e+03
9.420576e+02,1.932039e+03
9.526642e+02,1.925588e+03
9.632708e+02,1.914970e+03
9.738773e+02,1.890111e+03
9.844839e+02,1.876633e+03
9.950905e+02,1.887123e+03
1.005697e+03,1.872966e+03
1.016304e+03,1.861996e+03
1.026910e+03,1.858421e+03
1.037517e+03,1.844650e+03
1.048123e+03,1.837986e+03
1.058730e+03,1.842316e+03
1.069336e+03,1.808937e+03
1.079943e+03,1.825695e+03
1.090550e+03,1.830012e+03
1.101156e+03,1.817076e+03
1.111763e+03,1.813865e+03
1.122369e+03,1.805395e+03
1.132976e+03,1.800214e+03
1.143582e+03,1.799038e+03
1.154189e+03,1.783509e+03
1.164796e+03,1.754213e+03
1.175402e+03,1.741766e+03
1.186009e+03,1.730686e+03
1.196615e+03,1.723518e+03
1.207222e+03,1.719807e+03
1.217828e+03,1.711187e+03
1.228435e+03,1.697247e+03
1.239042e+03,1.671097e+03
1.249648e+03,1.662808e+03
1.260255e+03,1.673000e+03
1.270861e+03,1.667311e+03
1.281468e+03,1.688322e+03
1.292074e+03,1.678954e+03
1.302681e+03,1.641527e+03
1.313287e+03,1.637358e+03
1.323894e+03,1.635067e+03
1.334501e+03,1.636591e+03
1.345107e+03,1.637113e+03
1.355714e+03,1.617177e+03
1.366320e+03,1.608897e+03
1.376927e+03,1.590000e+03
1.387533e+03,1.561612e+03
1.398140e+03,1.577415e+03
1.408747e+03,1.565639e+03
1.419353e+03,1.545564e+03
1.429960e+03,1.537708e+03
1.440566e+03,1.521982e+03
1.451173e+03,1.503043e+03
1.461779e+03,1.503300e+03
1.472386e+03,1.493434e+03
1.482993e+03,1.482398e+03
1.493599e+03,1.481019e+03
1.504206e+03,1.470441e+03
1.514812e+03,1.443844e+03
1.525419e+03,1.434732e+03
1.536025e+03,1.437797e+03
1.546632e+03,1.429479e+03
1.557239e+03,1.420942e+03
1.567845e+03,1.435480e+03
1.578452e+03,1.432397e+03
1.589058e+03,1.425481e+03
1.599665e+03,1.410900e+03
1.610271e+03,1.383684e+03
1.620878e+03,1.362906e+03
1.631484e+03,1.348234e+03
1.642091e+03,1.343997e+03
1.652698e+03,1.338809e+03
1.663304e+03,1.312655e+03
1.673911e+03,1.320575e+03
1.684517e+03,1.304945e+03
1.695124e+03,1.297084e+03
1.705730e+03,1.293891e+03
1.716337e+03,1.258600e+03
1.726944e+03,1.263653e+03
1.737550e+03,1.256447e+03
1.748157e+03,1.240848e+03
1.758763e+03,1.238701e+03
1.769370e+03,1.228349e+03
1.779976e+03,1.216437e+03
1.790583e+03,1.191803e+03
1.801190e+03,1.213365e+03
1.811796e+03,1.195691e+03
1.822403e+03,1.168882e+03
1.833009e+03,1.166463e+03
1.843616e+03,1.150262e+03
1.854222e+03,1.152380e+03
1.864829e+03,1.154462e+03
1.875436e+03,1.124064e+03
1.886042e+03,1.119372e+03
1.896649e+03,1.110936e+03
1.907255e+03,1.107916e+03
1.917862e+03,1.080649e+03
1.928468e+03,1.076131e+03
1.939075e+03,1.069175e+03
1.949682e+03,1.053725e+03
1.960288e+03,1.048126e+03
1.970895e+03,1.038841e+03
1.981501e+03,1.031355e+03
1.992108e+03,1.017983e+03
2.002714e+03,1.006016e+03
2.013321e+03,9.944579e+02
2.023927e+03,9.857686e+02
2.034534e+03,9.863969e+02
2.045141e+03,9.834327e+02
2.055747e+03,9.579811e+02
2.066354e+03,9.548577e+02
2.076960e+03,9.460593e+02
2.087567e+03,9.316547e+02
2.098173e+03,9.303707e+02
2.108780e+03,9.225369e+02
2.119387e+03,9.018728e+02
2.129993e+03,8.980359e+02
2.140600e+03,8.707591e+02
2.151206e+03,8.815726e+02
2.161813e+03,8.853932e+02
2.172419e+03,8.454311e+02
2.183026e+03,8.487162e+02
2.193633e+03,8.345917e+02
2.204239e+03,8.281402e+02
2.214846e+03,8.216622e+02
2.225452e+03,8.065632e+02
2.236059e+03,7.887531e+02
2.246666e+03,7.870853e+02
2.257272e+03,7.811474e+02
2.267879e+03,7.794695e+02
2.278485e+03,7.684182e+02
2.289092e+03,7.639804e+02
2.299698e+03,7.701454e+02
2.310305e+03,7.323175e+02
2.320911e+03,7.352339e+02
2.331518e+03,7.347321e+02
2.342125e+03,7.208566e+02
2.352731e+03,7.028231e+02
2.363338e+03,7.030046e+02
2.373944e+03,7.093075e+02
2.384551e+03,6.867382e+02
2.395157e+03,6.885942e+02
2.405764e+03,6.743582e+02
2.416370e+03,6.752995e+02
2.426977e+03,6.613029e+02
2.437584e+03,6.502399e+02
2.448190e+03,6.529268e+02
2.458797e+03,6.404075e+02
2.469403e+03,6.496082e+02
2.480010e+03,6.152270e+02
2.490616e+03,6.213333e+02
2.501223e+03,6.229312e+02
2.511830e+03,6.177950e+02
2.522436e+03,6.029600e+02
2.533043e+03,6.109471e+02
2.543649e+03,6.049666e+02
2.554256e+03,6.099665e+02
2.564863e+03,6.011778e+02
2.575469e+03,5.926400e+02
2.586075e+03,5.776396e+02
2.596682e+03,5.765078e+02
2.607289e+03,5.665128e+02
2.617895e+03,5.659628e+02
2.628502e+03,5.536953e+02
2.639108e+03,5.709061e+02
2.649715e+03,5.546222e+02
2.660322e+03,5.432885e+02
2.670928e+03,5.406469e+02
2.681535e+03,5.376349e+02
2.692141e+03,5.286826e+02
2.702748e+03,5.215601e+02
2.713354e+03,5.310349e+02
2.723961e+03,5.195609e+02
2.734568e+03,5.036270e+02
2.745174e+03,5.121794e+02
2.755781e+03,5.076324e+02
2.766387e+03,4.961020e+02
2.776994e+03,4.888443e+02
2.787600e+03,4.852535e+02
2.798207e+03,5.090471e+02
2.808813e+03,4.841564e+02
2.819420e+03,4.889648e+02
2.830027e+03,4.833426e+02
2.840633e+03,4.767419e+02
2.851240e+03,5.060339e+02
2.861846e+03,4.832300e+02
2.872453e+03,4.786299e+02
2.883059e+03,4.964013e+02
2.893666e+03,5.134086e+02
2.904273e+03,5.143825e+02
2.914879e+03,4.904312e+02
2.925486e+03,4.773923e+02
2.936092e+03,4.733269e+02
2.946699e+03,4.609734e+02
2.957305e+03,5.227789e+02
2.967912e+03,4.550435e+02
2.978519e+03,4.554207e+02
2.989125e+03,4.321258e+02
2.999732e+03,4.483756e+02
3.010338e+03,4.376029e+02
3.020945e+03,4.271520e+02
3.031552e+03,4.188361e+02
3.042158e+03,4.370248e+02
3.052764e+03,4.263452e+02
3.063371e+03,4.059810e+02
3.073978e+03,4.254841e+02
3.084584e+03,4.327307e+02
3.095191e+03,4.163295e+02
3.105797e+03,4.126434e+02
3.116404e+03,4.413203e+02
3.127010e+03,4.350783e+02
3.137617e+03,4.386554e+02
3.148224e+03,4.160557e+02
3.158830e+03,4.460944e+02
3.169437e+03,4.282686e+02
3.180043e+03,4.500580e+02
3.190650e+03,3.967637e+02
3.200292e+03,4.678374e+02