File: RAMAN_data/20012023_r1/blue fibre5.CSV
1.995979e+02,4.498320e+03
2.102045e+02,4.529242e+03
2.208110e+02,4.564215e+03
2.314176e+02,4.563913e+03
2.420242e+02,4.589953e+03
2.526307e+02,4.614288e+03
2.632373e+02,4.601405e+03
2.738439e+02,4.624158e+03
2.844504e+02,4.657208e+03
2.950570e+02,4.656593e+03
3.056636e+02,4.658210e+03
3.162701e+02,4.682304e+03
3.268767e+02,4.685314e+03
3.374833e+02,4.673208e+03
3.480898e+02,4.695733e+03
3.586964e+02,4.695209e+03
3.693030e+02,4.675118e+03
3.799095e+02,4.701477e+03
3.905161e+02,4.685431e+03
4.011227e+02,4.656575e+03
4.117292e+02,4.692404e+03
4.223358e+02,4.673551e+03
4.329424e+02,4.671991e+03
4.435490e+02,4.677896e+03
4.541555e+02,4.656198e+03
4.647621e+02,4.620779e+03
4.753687e+02,4.608161e+03
4.859752e+02,4.625507e+03
4.965818e+02,4.595545e+03
5.071884e+02,4.576870e+03
5.177949e+02,4.592162e+03
5.284015e+02,4.559913e+03
5.390081e+02,4.513125e+03
5.496146e+02,4.515251e+03
5.602212e+02,4.526351e+03
5.708278e+02,4.473933e+03
5.814343e+02,4.464587e+03
5.920409e+02,4.454589e+03
6.026475e+02,4.445261e+03
6.132540e+02,4.426410e+03
6.238606e+02,4.405506e+03
6.344672e+02,4.386969e+03
6.450737e+02,4.363055e+03
6.556803e+02,4.339616e+03
6.662869e+02,4.315997e+03
6.768934e+02,4.284210e+03
6.875000e+02,4.287621e+03
6.981066e+02,4.271677e+03
7.087131e+02,4.225620e+03
7.193197e+02,4.205060e+03
7.299263e+02,4.158005e+03
7.405328e+02,4.147479e+03
7.511394e+02,4.132195e+03
7.617460e+02,4.112097e+03
7.723525e+02,4.082869e+03
7.829591e+02,4.061543e+03
7.935657e+02,4.029398e+03
8.041722e+02,4.010167e+03
8.147788e+02,3.996433e+03
8.253854e+02,3.975323e+03
8.359919e+02,3.942514e+03
8.465985e+02,3.927070e+03
8.572051e+02,3.906561e+03
8.678116e+02,3.861373e+03
8.784182e+02,3.844038e+03
8.890248e+02,3.844927e+03
8.996313e+02,3.795399e+03
9.102379e+02,3.768817e+03
9.208445e+02,3.740726e+03
9.314510e+02,3.713353e+03
9.420576e+02,3.709418e+03
9.526642e+02,3.669482e+03
9.632708e+02,3.652982e+03
9.738773e+02,3.605067e+03
9.844839e+02,3.585772e+03
9.950905e+02,3.580789e+03
1.005697e+03,3.553540e+03
1.016304e+03,3.514829e+03
1.026910e+03,3.529409e+03
1.037517e+03,3.490528e+03
1.048123e+03,3.451589e+03
1.058730e+03,3.447919e+03
1.069336e+03,3.450883e+03
1.079943e+03,3.410524e+03
1.090550e+03,3.420775e+03
1.101156e+03,3.397088e+03
1.111763e+03,3.365419e+03
1.122369e+03,3.374681e+03
1.132976e+03,3.335093e+03
1.143582e+03,3.323477e+03
1.154189e+03,3.301612e+03
1.164796e+03,3.246669e+03
1.175402e+03,3.242488e+03
1.186009e+03,3.233132e+03
1.196615e+03,3.206009e+03
1.207222e+03,3.180303e+03
1.217828e+03,3.161754e+03
1.228435e+03,3.162218e+03
1.239042e+03,3.143841e+03
1.249648e+03,3.096920e+03
1.260255e+03,3.091171e+03
1.270861e+03,3.100484e+03
1.281468e+03,3.088881e+03
1.292074e+03,3.058541e+03
1.302681e+03,3.036731e+03
1.313287e+03,3.012989e+03
1.323894e+03,3.003726e+03
1.334501e+03,3.013223e+03
1.345107e+03,2.973737e+03
1.355714e+03,2.967085e+03
1.366320e+03,2.947836e+03
1.376927e+03,2.929559e+03
1.387533e+03,2.900308e+03
1.398140e+03,2.877965e+03
1.408747e+03,2.876572e+03
1.419353e+03,2.844899e+03
1.429960e+03,2.831314e+03
1.440566e+03,2.803025e+03
1.451173e+03,2.785327e+03
1.461779e+03,2.774651e+03
1.472386e+03,2.768595e+03
1.482993e+03,2.741261e+03
1.493599e+03,2.721825e+03
1.504206e+03,2.709911e+03
1.514812e+03,2.690229e+03
1.525419e+03,2.673876e+03
1.536025e+03,2.652316e+03
1.546632e+03,2.640400e+03
1.557239e+03,2.632290e+03
1.567845e+03,2.623444e+03
1.578452e+03,2.607545e+03
1.589058e+03,2.601404e+03
1.599665e+03,2.557382e+03
1.610271e+03,2.548011e+03
1.620878e+03,2.522757e+03
1.631484e+03,2.512834e+03
1.642091e+03,2.489563e+03
1.652698e+03,2.479633e+03
1.663304e+03,2.444881e+03
1.673911e+03,2.434547e+03
1.684517e+03,2.416424e+03
1.695124e+03,2.387658e+03
1.705730e+03,2.374415e+03
1.716337e+03,2.371137e+03
1.726944e+03,2.330834e+03
1.737550e+03,2.332528e+03
1.748157e+03,2.309578e+03
1.758763e+03,2.288977e+03
1.769370e+03,2.275191e+03
1.779976e+03,2.259116e+03
1.790583e+03,2.223256e+03
1.801190e+03,2.200512e+03
1.811796e+03,2.205168e+03
1.822403e+03,2.180113e+03
1.833009e+03,2.155681e+03
1.843616e+03,2.161998e+03
1.854222e+03,2.117334e+03
1.864829e+03,2.092699e+03
1.875436e+03,2.090015e+03
1.886042e+03,2.069359e+03
1.896649e+03,2.032574e+03
1.907255e+03,2.032454e+03
1.917862e+03,2.006800e+03
1.928468e+03,1.972006e+03
1.939075e+03,1.953073e+03
1.949682e+03,1.953799e+03
1.960288e+03,1.942859e+03
1.970895e+03,1.911450e+03
1.981501e+03,1.904123e+03
1.992108e+03,1.857870e+03
2.002714e+03,1.842523e+03
2.013321e+03,1.831303e+03
2.023927e+03,1.831402e+03
2.034534e+03,1.784433e+03
2.045141e+03,1.782325e+03
2.055747e+03,1.753655e+03
2.066354e+03,1.732381e+03
2.076960e+03,1.733997e+03
2.087567e+03,1.706447e+03
2.098173e+03,1.705467e+03
2.108780e+03,1.685211e+03
2.119387e+03,1.658485e+03
2.129993e+03,1.631717e+03
2.140600e+03,1.608778e+03
2.151206e+03,1.599403e+03
2.161813e+03,1.579067e+03
2.172419e+03,1.570755e+03
2.183026e+03,1.557950e+03
2.193633e+03,1.528257e+03
2.204239e+03,1.530523e+03
2.214846e+03,1.491153e+03
2.225452e+03,1.460189e+03
2.236059e+03,1.464572e+03
2.246666e+03,1.438988e+03
2.257272e+03,1.427537e+03
2.267879e+03,1.417535e+03
2.278485e+03,1.398211e+03
2.289092e+03,1.367382e+03
2.299698e+03,1.359873e+03
2.310305e+03,1.342536e+03
2.320911e+03,1.322358e+03
2.331518e+03,1.287366e+03
2.342125e+03,1.295920e+03
2.352731e+03,1.275422e+03
2.363338e+03,1.273595e+03
2.373944e+03,1.245297e+03
2.384551e+03,1.238137e+03
2.395157e+03,1.220495e+03
2.405764e+03,1.205482e+03
2.416370e+03,1.203232e+03
2.426977e+03,1.180536e+03
2.437584e+03,1.171861e+03
2.448190e+03,1.156232e+03
2.458797e+03,1.139758e+03
2.469403e+03,1.139761e+03
2.480010e+03,1.119256e+03
2.490616e+03,1.105045e+03
2.501223e+03,1.104881e+03
2.511830e+03,1.091310e+03
2.522436e+03,1.075987e+03
2.533043e+03,1.073640e+03
2.543649e+03,1.049831e+03
2.554256e+03,1.054026e+03
2.564863e+03,1.047814e+03
2.575469e+03,1.032193e+03
2.586075e+03,1.016359e+03
2.596682e+03,9.921164e+02
2.607289e+03,9.965828e+02
2.617895e+03,9.969724e+02
2.628502e+03,9.990252e+02
2.639108e+03,9.729481e+02
2.649715e+03,9.545010e+02
2.660322e+03,9.607916e+02
2.670928e+03,9.484229e+02
2.681535e+03,9.250842e+02
2.692141e+03,9.211087e+02
2.702748e+03,9.168484e+02
2.713354e+03,8.988845e+02
2.723961e+03,8.998530e+02
2.734568e+03,8.793036e+02
2.745174e+03,9.026532e+02
2.755781e+03,8.808226e+02
2.766387e+03,8.677952e+02
2.776994e+03,8.753174e+02
2.787600e+03,8.551873e+02
2.798207e+03,8.614807e+02
2.808813e+03,8.497660e+02
2.819420e+03,8.411468e+02
2.830027e+03,8.446527e+02
2.840633e+03,8.198337e+02
2.851240e+03,8.180335e+02
2.861846e+03,8.398407e+02
2.872453e+03,8.291683e+02
2.883059e+03,8.583839e+02
2.893666e+03,8.385357e+02
2.904273e+03,8.140384e+02
2.914879e+03,8.345771e+02
2.925486e+03,8.184047e+02
2.936092e+03,7.878262e+02
2.946699e+03,7.881404e+02
2.957305e+03,8.446485e+02
2.967912e+03,7.732974e+02
2.978519e+03,7.773234e+02
2.989125e+03,7.440713e+02
2.999732e+03,7.360788e+02
3.010338e+03,7.504964e+02
3.020945e+03,7.558965e+02
3.031552e+03,7.142933e+02
3.042158e+03,7.320357e+02
3.052764e+03,7.358818e+02
3.063371e+03,7.313311e+02
3.073978e+03,7.451394e+02
3.084584e+03,7.096807e+02
3.095191e+03,7.496391e+02
3.105797e+03,6.838185e+02
3.116404e+03,7.338701e+02
3.127010e+03,7.529150e+02
3.137617e+03,7.384219e+02
3.148224e+03,6.996985e+02
3.158830e+03,7.273291e+02
3.169437e+03,7.107228e+02
3.180043e+03,6.917228e+02
3.190650e+03,7.630616e+02
3.200292e+03,7.621635e+02