File: RAMAN_data/20012023_r1/orange frag1.CSV
1.995979e+02,5.400734e+03
2.102045e+02,5.416650e+03
2.208110e+02,5.444203e+03
2.314176e+02,5.439788e+03
2.420242e+02,5.449937e+03
2.526307e+02,5.469741e+03
2.632373e+02,5.435838e+03
2.738439e+02,5.442333e+03
2.844504e+02,5.484623e+03
2.950570e+02,5.469557e+03
3.056636e+02,5.441663e+03
3.162701e+02,5.465088e+03
3.268767e+02,5.454182e+03
3.374833e+02,5.442944e+03
3.480898e+02,5.459073e+03
3.586964e+02,5.435589e+03
3.693030e+02,5.413156e+03
3.799095e+02,5.442385e+03
3.905161e+02,5.421099e+03
4.011227e+02,5.377598e+03
4.117292e+02,5.350623e+03
4.223358e+02,5.365554e+03
4.329424e+02,5.349764e+03
4.435490e+02,5.332427e+03
4.541555e+02,5.306457e+03
4.647621e+02,5.283072e+03
4.753687e+02,5.240889e+03
4.859752e+02,5.210566e+03
4.965818e+02,5.203427e+03
5.071884e+02,5.178287e+03
5.177949e+02,5.175412e+03
5.284015e+02,5.148313e+03
5.390081e+02,5.138890e+03
5.496146e+02,5.102394e+03
5.602212e+02,5.095124e+03
5.708278e+02,5.049646e+03
5.814343e+02,5.029374e+03
5.920409e+02,5.005158e+03
6.026475e+02,4.983005e+03
6.132540e+02,4.970924e+03
6.238606e+02,4.939993e+03
6.344672e+02,4.899416e+03
6.450737e+02,4.869539e+03
6.556803e+02,4.832544e+03
6.662869e+02,4.825323e+03
6.768934e+02,4.808767e+03
6.875000e+02,4.768507e+03
6.981066e+02,4.754554e+03
7.087131e+02,4.696676e+03
7.193197e+02,4.683563e+03
7.299263e+02,4.643273e+03
7.405328e+02,4.650446e+03
7.511394e+02,4.596360e+03
7.617460e+02,4.562982e+03
7.723525e+02,4.543800e+03
7.829591e+02,4.529688e+03
7.935657e+02,4.496849e+03
8.041722e+02,4.476244e+03
8.147788e+02,4.444366e+03
8.253854e+02,4.439354e+03
8.359919e+02,4.380738e+03
8.465985e+02,4.362905e+03
8.572051e+02,4.326401e+03
8.678116e+02,4.323288e+03
8.784182e+02,4.287160e+03
8.890248e+02,4.276820e+03
8.996313e+02,4.234833e+03
9.102379e+02,4.224321e+03
9.208445e+02,4.181137e+03
9.314510e+02,4.176339e+03
9.420576e+02,4.151116e+03
9.526642e+02,4.127795e+03
9.632708e+02,4.115188e+03
9.738773e+02,4.084524e+03
9.844839e+02,4.040862e+03
9.950905e+02,4.048032e+03
1.005697e+03,4.009674e+03
1.016304e+03,3.985011e+03
1.026910e+03,3.975959e+03
1.037517e+03,3.992531e+03
1.048123e+03,3.947307e+03
1.058730e+03,3.946606e+03
1.069336e+03,3.892151e+03
1.079943e+03,3.876021e+03
1.090550e+03,3.918099e+03
1.101156e+03,3.878023e+03
1.111763e+03,3.864508e+03
1.122369e+03,3.847560e+03
1.132976e+03,3.834910e+03
1.143582e+03,3.804002e+03
1.154189e+03,3.816284e+03
1.164796e+03,3.806175e+03
1.175402e+03,3.764829e+03
1.186009e+03,3.736496e+03
1.196615e+03,3.748274e+03
1.207222e+03,3.729452e+03
1.217828e+03,3.720711e+03
1.228435e+03,3.770753e+03
1.239042e+03,3.733229e+03
1.249648e+03,3.703367e+03
1.260255e+03,3.743052e+03
1.270861e+03,3.707778e+03
1.281468e+03,3.714805e+03
1.292074e+03,3.672423e+03
1.302681e+03,3.654172e+03
1.313287e+03,3.641875e+03
1.323894e+03,3.708679e+03
1.334501e+03,3.697497e+03
1.345107e+03,3.651461e+03
1.355714e+03,3.717360e+03
1.366320e+03,3.616182e+03
1.376927e+03,3.572257e+03
1.387533e+03,3.578631e+03
1.398140e+03,3.544296e+03
1.408747e+03,3.483473e+03
1.419353e+03,3.485532e+03
1.429960e+03,3.458617e+03
1.440566e+03,3.443084e+03
1.451173e+03,3.443418e+03
1.461779e+03,3.442615e+03
1.472386e+03,3.397566e+03
1.482993e+03,3.441993e+03
1.493599e+03,3.394816e+03
1.504206e+03,3.372771e+03
1.514812e+03,3.327883e+03
1.525419e+03,3.325830e+03
1.536025e+03,3.291210e+03
1.546632e+03,3.304831e+03
1.557239e+03,3.293355e+03
1.567845e+03,3.324470e+03
1.578452e+03,3.373464e+03
1.589058e+03,3.316097e+03
1.599665e+03,3.275834e+03
1.610271e+03,3.217552e+03
1.620878e+03,3.169798e+03
1.631484e+03,3.137750e+03
1.642091e+03,3.113988e+03
1.652698e+03,3.070127e+03
1.663304e+03,3.077302e+03
1.673911e+03,3.048839e+03
1.684517e+03,3.012581e+03
1.695124e+03,3.014505e+03
1.705730e+03,2.991279e+03
1.716337e+03,2.960155e+03
1.726944e+03,2.940363e+03
1.737550e+03,2.918065e+03
1.748157e+03,2.894155e+03
1.758763e+03,2.873078e+03
1.769370e+03,2.868126e+03
1.779976e+03,2.832764e+03
1.790583e+03,2.802310e+03
1.801190e+03,2.794545e+03
1.811796e+03,2.784075e+03
1.822403e+03,2.757585e+03
1.833009e+03,2.731418e+03
1.843616e+03,2.708988e+03
1.854222e+03,2.683673e+03
1.864829e+03,2.669251e+03
1.875436e+03,2.656339e+03
1.886042e+03,2.601878e+03
1.896649e+03,2.609107e+03
1.907255e+03,2.594336e+03
1.917862e+03,2.554359e+03
1.928468e+03,2.536749e+03
1.939075e+03,2.513279e+03
1.949682e+03,2.486864e+03
1.960288e+03,2.478115e+03
1.970895e+03,2.440488e+03
1.981501e+03,2.428375e+03
1.992108e+03,2.402776e+03
2.002714e+03,2.398048e+03
2.013321e+03,2.365018e+03
2.023927e+03,2.334561e+03
2.034534e+03,2.339027e+03
2.045141e+03,2.299003e+03
2.055747e+03,2.271560e+03
2.066354e+03,2.260192e+03
2.076960e+03,2.225616e+03
2.087567e+03,2.203780e+03
2.098173e+03,2.204040e+03
2.108780e+03,2.185652e+03
2.119387e+03,2.147245e+03
2.129993e+03,2.129032e+03
2.140600e+03,2.088566e+03
2.151206e+03,2.100262e+03
2.161813e+03,2.070982e+03
2.172419e+03,2.047639e+03
2.183026e+03,2.025844e+03
2.193633e+03,2.011948e+03
2.204239e+03,1.998074e+03
2.214846e+03,1.987590e+03
2.225452e+03,1.938384e+03
2.236059e+03,1.935303e+03
2.246666e+03,1.916230e+03
2.257272e+03,1.890963e+03
2.267879e+03,1.878761e+03
2.278485e+03,1.863393e+03
2.289092e+03,1.830278e+03
2.299698e+03,1.816804e+03
2.310305e+03,1.795755e+03
2.320911e+03,1.774242e+03
2.331518e+03,1.770692e+03
2.342125e+03,1.738228e+03
2.352731e+03,1.721425e+03
2.363338e+03,1.727007e+03
2.373944e+03,1.700652e+03
2.384551e+03,1.681542e+03
2.395157e+03,1.672766e+03
2.405764e+03,1.663512e+03
2.416370e+03,1.637149e+03
2.426977e+03,1.634181e+03
2.437584e+03,1.612779e+03
2.448190e+03,1.598008e+03
2.458797e+03,1.584763e+03
2.469403e+03,1.576440e+03
2.480010e+03,1.578681e+03
2.490616e+03,1.542539e+03
2.501223e+03,1.536857e+03
2.511830e+03,1.517549e+03
2.522436e+03,1.495708e+03
2.533043e+03,1.516166e+03
2.543649e+03,1.487955e+03
2.554256e+03,1.477040e+03
2.564863e+03,1.470208e+03
2.575469e+03,1.450938e+03
2.586075e+03,1.446609e+03
2.596682e+03,1.443447e+03
2.607289e+03,1.421590e+03
2.617895e+03,1.410449e+03
2.628502e+03,1.415442e+03
2.639108e+03,1.379687e+03
2.649715e+03,1.385201e+03
2.660322e+03,1.368539e+03
2.670928e+03,1.343823e+03
2.681535e+03,1.335732e+03
2.692141e+03,1.331254e+03
2.702748e+03,1.338181e+03
2.713354e+03,1.312582e+03
2.723961e+03,1.328355e+03
2.734568e+03,1.322176e+03
2.745174e+03,1.298029e+03
2.755781e+03,1.281193e+03
2.766387e+03,1.269711e+03
2.776994e+03,1.261673e+03
2.787600e+03,1.263486e+03
2.798207e+03,1.256749e+03
2.808813e+03,1.250659e+03
2.819420e+03,1.237673e+03
2.830027e+03,1.231612e+03
2.840633e+03,1.209053e+03
2.851240e+03,1.228070e+03
2.861846e+03,1.206936e+03
2.872453e+03,1.197576e+03
2.883059e+03,1.228599e+03
2.893666e+03,1.223378e+03
2.904273e+03,1.214111e+03
2.914879e+03,1.195121e+03
2.925486e+03,1.181173e+03
2.936092e+03,1.201081e+03
2.946699e+03,1.183341e+03
2.957305e+03,1.219255e+03
2.967912e+03,1.170444e+03
2.978519e+03,1.152713e+03
2.989125e+03,1.150811e+03
2.999732e+03,1.112627e+03
3.010338e+03,1.111079e+03
3.020945e+03,1.113733e+03
3.031552e+03,1.082517e+03
3.042158e+03,1.107158e+03
3.052764e+03,1.092123e+03
3.063371e+03,1.102391e+03
3.073978e+03,1.081980e+03
3.084584e+03,1.079225e+03
3.095191e+03,1.112511e+03
3.105797e+03,1.052141e+03
3.116404e+03,1.112416e+03
3.127010e+03,1.060672e+03
3.137617e+03,1.076884e+03
3.148224e+03,1.060445e+03
3.158830e+03,1.069589e+03
3.169437e+03,1.082669e+03
3.180043e+03,1.044855e+03
3.190650e+03,1.052103e+03
3.200292e+03,1.103920e+03