File: RAMAN_data/20012023_r1/red fibre2.CSV
1.995979e+02,8.005236e+03
2.102045e+02,8.025196e+03
2.208110e+02,8.065278e+03
2.314176e+02,8.072154e+03
2.420242e+02,8.108803e+03
2.526307e+02,8.136439e+03
2.632373e+02,8.125889e+03
2.738439e+02,8.158756e+03
2.844504e+02,8.218022e+03
2.950570e+02,8.164449e+03
3.056636e+02,8.167825e+03
3.162701e+02,8.205006e+03
3.268767e+02,8.211333e+03
3.374833e+02,8.173356e+03
3.480898e+02,8.168716e+03
3.586964e+02,8.176619e+03
3.693030e+02,8.190636e+03
3.799095e+02,8.207385e+03
3.905161e+02,8.170964e+03
4.011227e+02,8.112701e+03
4.117292e+02,8.117575e+03
4.223358e+02,8.119555e+03
4.329424e+02,8.076142e+03
4.435490e+02,8.045453e+03
4.541555e+02,8.056344e+03
4.647621e+02,8.000392e+03
4.753687e+02,7.979535e+03
4.859752e+02,7.980878e+03
4.965818e+02,7.978217e+03
5.071884e+02,7.932690e+03
5.177949e+02,7.932709e+03
5.284015e+02,7.878202e+03
5.390081e+02,7.842845e+03
5.496146e+02,7.819771e+03
5.602212e+02,7.815966e+03
5.708278e+02,7.755282e+03
5.814343e+02,7.740948e+03
5.920409e+02,7.693494e+03
6.026475e+02,7.671612e+03
6.132540e+02,7.603963e+03
6.238606e+02,7.596269e+03
6.344672e+02,7.569397e+03
6.450737e+02,7.540999e+03
6.556803e+02,7.519432e+03
6.662869e+02,7.421859e+03
6.768934e+02,7.409974e+03
6.875000e+02,7.374288e+03
6.981066e+02,7.343338e+03
7.087131e+02,7.282689e+03
7.193197e+02,7.262687e+03
7.299263e+02,7.208023e+03
7.405328e+02,7.162611e+03
7.511394e+02,7.106001e+03
7.617460e+02,7.125606e+03
7.723525e+02,7.046597e+03
7.829591e+02,7.031845e+03
7.935657e+02,6.973304e+03
8.041722e+02,6.933659e+03
8.147788e+02,6.886768e+03
8.253854e+02,6.856562e+03
8.359919e+02,6.841235e+03
8.465985e+02,6.775249e+03
8.572051e+02,6.729323e+03
8.678116e+02,6.713065e+03
8.784182e+02,6.684822e+03
8.890248e+02,6.630857e+03
8.996313e+02,6.595851e+03
9.102379e+02,6.504750e+03
9.208445e+02,6.505817e+03
9.314510e+02,6.466876e+03
9.420576e+02,6.421596e+03
9.526642e+02,6.374002e+03
9.632708e+02,6.355983e+03
9.738773e+02,6.310547e+03
9.844839e+02,6.251338e+03
9.950905e+02,6.231974e+03
1.005697e+03,6.195371e+03
1.016304e+03,6.134192e+03
1.026910e+03,6.132868e+03
1.037517e+03,6.075213e+03
1.048123e+03,6.063896e+03
1.058730e+03,6.019334e+03
1.069336e+03,6.010146e+03
1.079943e+03,5.972554e+03
1.090550e+03,5.955562e+03
1.101156e+03,5.916217e+03
1.111763e+03,5.852612e+03
1.122369e+03,5.837669e+03
1.132976e+03,5.846497e+03
1.143582e+03,5.787721e+03
1.154189e+03,5.772474e+03
1.164796e+03,5.759233e+03
1.175402e+03,5.705313e+03
1.186009e+03,5.653881e+03
1.196615e+03,5.680033e+03
1.207222e+03,5.622881e+03
1.217828e+03,5.600504e+03
1.228435e+03,5.591858e+03
1.239042e+03,5.550809e+03
1.249648e+03,5.502757e+03
1.260255e+03,5.483114e+03
1.270861e+03,5.477848e+03
1.281468e+03,5.441391e+03
1.292074e+03,5.408102e+03
1.302681e+03,5.403178e+03
1.313287e+03,5.372439e+03
1.323894e+03,5.342783e+03
1.334501e+03,5.346870e+03
1.345107e+03,5.320494e+03
1.355714e+03,5.278711e+03
1.366320e+03,5.245589e+03
1.376927e+03,5.220307e+03
1.387533e+03,5.176288e+03
1.398140e+03,5.185871e+03
1.408747e+03,5.130430e+03
1.419353e+03,5.088883e+03
1.429960e+03,5.056734e+03
1.440566e+03,5.026502e+03
1.451173e+03,5.005874e+03
1.461779e+03,4.973042e+03
1.472386e+03,4.957900e+03
1.482993e+03,4.916156e+03
1.493599e+03,4.885345e+03
1.504206e+03,4.872163e+03
1.514812e+03,4.818194e+03
1.525419e+03,4.819653e+03
1.536025e+03,4.777638e+03
1.546632e+03,4.737584e+03
1.557239e+03,4.717982e+03
1.567845e+03,4.731183e+03
1.578452e+03,4.709771e+03
1.589058e+03,4.685735e+03
1.599665e+03,4.660252e+03
1.610271e+03,4.600483e+03
1.620878e+03,4.582394e+03
1.631484e+03,4.530699e+03
1.642091e+03,4.527978e+03
1.652698e+03,4.453886e+03
1.663304e+03,4.420636e+03
1.673911e+03,4.380435e+03
1.684517e+03,4.349729e+03
1.695124e+03,4.322424e+03
1.705730e+03,4.302896e+03
1.716337e+03,4.238989e+03
1.726944e+03,4.226619e+03
1.737550e+03,4.211486e+03
1.748157e+03,4.173026e+03
1.758763e+03,4.132541e+03
1.769370e+03,4.114072e+03
1.779976e+03,4.086783e+03
1.790583e+03,4.022014e+03
1.801190e+03,4.037185e+03
1.811796e+03,3.967708e+03
1.822403e+03,3.962885e+03
1.833009e+03,3.933792e+03
1.843616e+03,3.908317e+03
1.854222e+03,3.869645e+03
1.864829e+03,3.821217e+03
1.875436e+03,3.815327e+03
1.886042e+03,3.771312e+03
1.896649e+03,3.755063e+03
1.907255e+03,3.733134e+03
1.917862e+03,3.657806e+03
1.928468e+03,3.633921e+03
1.939075e+03,3.622345e+03
1.949682e+03,3.587206e+03
1.960288e+03,3.509603e+03
1.970895e+03,3.524035e+03
1.981501e+03,3.489392e+03
1.992108e+03,3.444821e+03
2.002714e+03,3.431478e+03
2.013321e+03,3.404453e+03
2.023927e+03,3.359550e+03
2.034534e+03,3.347055e+03
2.045141e+03,3.308726e+03
2.055747e+03,3.256230e+03
2.066354e+03,3.217839e+03
2.076960e+03,3.208072e+03
2.087567e+03,3.180082e+03
2.098173e+03,3.158090e+03
2.108780e+03,3.136703e+03
2.119387e+03,3.064814e+03
2.129993e+03,3.035942e+03
2.140600e+03,3.019339e+03
2.151206e+03,2.991776e+03
2.161813e+03,2.964701e+03
2.172419e+03,2.944162e+03
2.183026e+03,2.902832e+03
2.193633e+03,2.868782e+03
2.204239e+03,2.864276e+03
2.214846e+03,2.811676e+03
2.225452e+03,2.762249e+03
2.236059e+03,2.745337e+03
2.246666e+03,2.717137e+03
2.257272e+03,2.695569e+03
2.267879e+03,2.666602e+03
2.278485e+03,2.646102e+03
2.289092e+03,2.610768e+03
2.299698e+03,2.582498e+03
2.310305e+03,2.528977e+03
2.320911e+03,2.538885e+03
2.331518e+03,2.504730e+03
2.342125e+03,2.453991e+03
2.352731e+03,2.439108e+03
2.363338e+03,2.450181e+03
2.373944e+03,2.389320e+03
2.384551e+03,2.357060e+03
2.395157e+03,2.335937e+03
2.405764e+03,2.317149e+03
2.416370e+03,2.293539e+03
2.426977e+03,2.291121e+03
2.437584e+03,2.251803e+03
2.448190e+03,2.209202e+03
2.458797e+03,2.227449e+03
2.469403e+03,2.179114e+03
2.480010e+03,2.182408e+03
2.490616e+03,2.161319e+03
2.501223e+03,2.126939e+03
2.511830e+03,2.115619e+03
2.522436e+03,2.074115e+03
2.533043e+03,2.066752e+03
2.543649e+03,2.056073e+03
2.554256e+03,2.042759e+03
2.564863e+03,2.028084e+03
2.575469e+03,2.007676e+03
2.586075e+03,1.974274e+03
2.596682e+03,1.963776e+03
2.607289e+03,1.935385e+03
2.617895e+03,1.914158e+03
2.628502e+03,1.930903e+03
2.639108e+03,1.904518e+03
2.649715e+03,1.903183e+03
2.660322e+03,1.856889e+03
2.670928e+03,1.845156e+03
2.681535e+03,1.830321e+03
2.692141e+03,1.847916e+03
2.702748e+03,1.821557e+03
2.713354e+03,1.795770e+03
2.723961e+03,1.786444e+03
2.734568e+03,1.796084e+03
2.745174e+03,1.758104e+03
2.755781e+03,1.733244e+03
2.766387e+03,1.725789e+03
2.776994e+03,1.707302e+03
2.787600e+03,1.709147e+03
2.798207e+03,1.706947e+03
2.808813e+03,1.660570e+03
2.819420e+03,1.671100e+03
2.830027e+03,1.664455e+03
2.840633e+03,1.657303e+03
2.851240e+03,1.656800e+03
2.861846e+03,1.630987e+03
2.872453e+03,1.667128e+03
2.883059e+03,1.631012e+03
2.893666e+03,1.615554e+03
2.904273e+03,1.584223e+03
2.914879e+03,1.588370e+03
2.925486e+03,1.584016e+03
2.936092e+03,1.556355e+03
2.946699e+03,1.567098e+03
2.957305e+03,1.621433e+03
2.967912e+03,1.537811e+03
2.978519e+03,1.552269e+03
2.989125e+03,1.522441e+03
2.999732e+03,1.500046e+03
3.010338e+03,1.524742e+03
3.020945e+03,1.496518e+03
3.031552e+03,1.489141e+03
3.042158e+03,1.501707e+03
3.052764e+03,1.485999e+03
3.063371e+03,1.467379e+03
3.073978e+03,1.461494e+03
3.084584e+03,1.437497e+03
3.095191e+03,1.463846e+03
3.105797e+03,1.462197e+03
3.116404e+03,1.463140e+03
3.127010e+03,1.449808e+03
3.137617e+03,1.488296e+03
3.148224e+03,1.438331e+03
3.158830e+03,1.467774e+03
3.169437e+03,1.468052e+03
3.180043e+03,1.447875e+03
3.190650e+03,1.439558e+03
3.200292e+03,1.444292e+03