File: RAMAN_data/20012023_r1/red frag1.CSV
1.995979e+02,3.881046e+03
2.102045e+02,3.897856e+03
2.208110e+02,3.923936e+03
2.314176e+02,3.926961e+03
2.420242e+02,3.914818e+03
2.526307e+02,3.943873e+03
2.632373e+02,3.941984e+03
2.738439e+02,3.938381e+03
2.844504e+02,3.982471e+03
2.950570e+02,3.960770e+03
3.056636e+02,3.942692e+03
3.162701e+02,3.968659e+03
3.268767e+02,3.952688e+03
3.374833e+02,3.955092e+03
3.480898e+02,3.950129e+03
3.586964e+02,3.956575e+03
3.693030e+02,3.948677e+03
3.799095e+02,3.950363e+03
3.905161e+02,3.932453e+03
4.011227e+02,3.930200e+03
4.117292e+02,3.907349e+03
4.223358e+02,3.897388e+03
4.329424e+02,3.914630e+03
4.435490e+02,3.876261e+03
4.541555e+02,3.888188e+03
4.647621e+02,3.838218e+03
4.753687e+02,3.849980e+03
4.859752e+02,3.822954e+03
4.965818e+02,3.816966e+03
5.071884e+02,3.789313e+03
5.177949e+02,3.794375e+03
5.284015e+02,3.768872e+03
5.390081e+02,3.770799e+03
5.496146e+02,3.744117e+03
5.602212e+02,3.750354e+03
5.708278e+02,3.704606e+03
5.814343e+02,3.677116e+03
5.920409e+02,3.664601e+03
6.026475e+02,3.670962e+03
6.132540e+02,3.650487e+03
6.238606e+02,3.632146e+03
6.344672e+02,3.615084e+03
6.450737e+02,3.580153e+03
6.556803e+02,3.563088e+03
6.662869e+02,3.554414e+03
6.768934e+02,3.519633e+03
6.875000e+02,3.512552e+03
6.981066e+02,3.489551e+03
7.087131e+02,3.467145e+03
7.193197e+02,3.475909e+03
7.299263e+02,3.452133e+03
7.405328e+02,3.400200e+03
7.511394e+02,3.390912e+03
7.617460e+02,3.377132e+03
7.723525e+02,3.353940e+03
7.829591e+02,3.320708e+03
7.935657e+02,3.313187e+03
8.041722e+02,3.305741e+03
8.147788e+02,3.282056e+03
8.253854e+02,3.265012e+03
8.359919e+02,3.236662e+03
8.465985e+02,3.239073e+03
8.572051e+02,3.204407e+03
8.678116e+02,3.196763e+03
8.784182e+02,3.163811e+03
8.890248e+02,3.164614e+03
8.996313e+02,3.127160e+03
9.102379e+02,3.108338e+03
9.208445e+02,3.088343e+03
9.314510e+02,3.081652e+03
9.420576e+02,3.060414e+03
9.526642e+02,3.043570e+03
9.632708e+02,3.038155e+03
9.738773e+02,2.998685e+03
9.844839e+02,2.976935e+03
9.950905e+02,3.002821e+03
1.005697e+03,2.963454e+03
1.016304e+03,2.926602e+03
1.026910e+03,2.936781e+03
1.037517e+03,2.919180e+03
1.048123e+03,2.899683e+03
1.058730e+03,2.899318e+03
1.069336e+03,2.882575e+03
1.079943e+03,2.858017e+03
1.090550e+03,2.869402e+03
1.101156e+03,2.850254e+03
1.111763e+03,2.826691e+03
1.122369e+03,2.818439e+03
1.132976e+03,2.800556e+03
1.143582e+03,2.791532e+03
1.154189e+03,2.789206e+03
1.164796e+03,2.763493e+03
1.175402e+03,2.746128e+03
1.186009e+03,2.734340e+03
1.196615e+03,2.732456e+03
1.207222e+03,2.701293e+03
1.217828e+03,2.708999e+03
1.228435e+03,2.727945e+03
1.239042e+03,2.710122e+03
1.249648e+03,2.676735e+03
1.260255e+03,2.702283e+03
1.270861e+03,2.683929e+03
1.281468e+03,2.666224e+03
1.292074e+03,2.673073e+03
1.302681e+03,2.644108e+03
1.313287e+03,2.625221e+03
1.323894e+03,2.651369e+03
1.334501e+03,2.659968e+03
1.345107e+03,2.628596e+03
1.355714e+03,2.653557e+03
1.366320e+03,2.595844e+03
1.376927e+03,2.568004e+03
1.387533e+03,2.569836e+03
1.398140e+03,2.555625e+03
1.408747e+03,2.515164e+03
1.419353e+03,2.513206e+03
1.429960e+03,2.488211e+03
1.440566e+03,2.493481e+03
1.451173e+03,2.474701e+03
1.461779e+03,2.480042e+03
1.472386e+03,2.467081e+03
1.482993e+03,2.477215e+03
1.493599e+03,2.440915e+03
1.504206e+03,2.432138e+03
1.514812e+03,2.388177e+03
1.525419e+03,2.401227e+03
1.536025e+03,2.392087e+03
1.546632e+03,2.380105e+03
1.557239e+03,2.387040e+03
1.567845e+03,2.383755e+03
1.578452e+03,2.408146e+03
1.589058e+03,2.367925e+03
1.599665e+03,2.352050e+03
1.610271e+03,2.308000e+03
1.620878e+03,2.309740e+03
1.631484e+03,2.260568e+03
1.642091e+03,2.264413e+03
1.652698e+03,2.245448e+03
1.663304e+03,2.220814e+03
1.673911e+03,2.216917e+03
1.684517e+03,2.193178e+03
1.695124e+03,2.197839e+03
1.705730e+03,2.164641e+03
1.716337e+03,2.148565e+03
1.726944e+03,2.135681e+03
1.737550e+03,2.119053e+03
1.748157e+03,2.101522e+03
1.758763e+03,2.097853e+03
1.769370e+03,2.083933e+03
1.779976e+03,2.072572e+03
1.790583e+03,2.066580e+03
1.801190e+03,2.042733e+03
1.811796e+03,2.016461e+03
1.822403e+03,2.015757e+03
1.833009e+03,2.004834e+03
1.843616e+03,2.006425e+03
1.854222e+03,1.958953e+03
1.864829e+03,1.956042e+03
1.875436e+03,1.942216e+03
1.886042e+03,1.921223e+03
1.896649e+03,1.913874e+03
1.907255e+03,1.885415e+03
1.917862e+03,1.876411e+03
1.928468e+03,1.856980e+03
1.939075e+03,1.858528e+03
1.949682e+03,1.824051e+03
1.960288e+03,1.820803e+03
1.970895e+03,1.783917e+03
1.981501e+03,1.778136e+03
1.992108e+03,1.761407e+03
2.002714e+03,1.770019e+03
2.013321e+03,1.744113e+03
2.023927e+03,1.731275e+03
2.034534e+03,1.718522e+03
2.045141e+03,1.698119e+03
2.055747e+03,1.674054e+03
2.066354e+03,1.670207e+03
2.076960e+03,1.632856e+03
2.087567e+03,1.628250e+03
2.098173e+03,1.620775e+03
2.108780e+03,1.612097e+03
2.119387e+03,1.602355e+03
2.129993e+03,1.570449e+03
2.140600e+03,1.562706e+03
2.151206e+03,1.541539e+03
2.161813e+03,1.531787e+03
2.172419e+03,1.520573e+03
2.183026e+03,1.498365e+03
2.193633e+03,1.472837e+03
2.204239e+03,1.473294e+03
2.214846e+03,1.460332e+03
2.225452e+03,1.440439e+03
2.236059e+03,1.425514e+03
2.246666e+03,1.409243e+03
2.257272e+03,1.394592e+03
2.267879e+03,1.366026e+03
2.278485e+03,1.365305e+03
2.289092e+03,1.366941e+03
2.299698e+03,1.357489e+03
2.310305e+03,1.329130e+03
2.320911e+03,1.330329e+03
2.331518e+03,1.307277e+03
2.342125e+03,1.293870e+03
2.352731e+03,1.279982e+03
2.363338e+03,1.276199e+03
2.373944e+03,1.250253e+03
2.384551e+03,1.241584e+03
2.395157e+03,1.246004e+03
2.405764e+03,1.231170e+03
2.416370e+03,1.226530e+03
2.426977e+03,1.209739e+03
2.437584e+03,1.204103e+03
2.448190e+03,1.184189e+03
2.458797e+03,1.179446e+03
2.469403e+03,1.153503e+03
2.480010e+03,1.155198e+03
2.490616e+03,1.143599e+03
2.501223e+03,1.139191e+03
2.511830e+03,1.141736e+03
2.522436e+03,1.116252e+03
2.533043e+03,1.113899e+03
2.543649e+03,1.099765e+03
2.554256e+03,1.098654e+03
2.564863e+03,1.084253e+03
2.575469e+03,1.084499e+03
2.586075e+03,1.071504e+03
2.596682e+03,1.048629e+03
2.607289e+03,1.047955e+03
2.617895e+03,1.033151e+03
2.628502e+03,1.028562e+03
2.639108e+03,1.027653e+03
2.649715e+03,1.012229e+03
2.660322e+03,1.019096e+03
2.670928e+03,1.012631e+03
2.681535e+03,1.001536e+03
2.692141e+03,9.889922e+02
2.702748e+03,9.932630e+02
2.713354e+03,9.641716e+02
2.723961e+03,9.649564e+02
2.734568e+03,9.619559e+02
2.745174e+03,9.742645e+02
2.755781e+03,9.492568e+02
2.766387e+03,9.532699e+02
2.776994e+03,9.403292e+02
2.787600e+03,9.414260e+02
2.798207e+03,9.300831e+02
2.808813e+03,9.116228e+02
2.819420e+03,9.280995e+02
2.830027e+03,9.203407e+02
2.840633e+03,9.030494e+02
2.851240e+03,9.203239e+02
2.861846e+03,9.175132e+02
2.872453e+03,9.132698e+02
2.883059e+03,8.945734e+02
2.893666e+03,9.399144e+02
2.904273e+03,9.041741e+02
2.914879e+03,9.214396e+02
2.925486e+03,9.017933e+02
2.936092e+03,8.946189e+02
2.946699e+03,8.620996e+02
2.957305e+03,9.169166e+02
2.967912e+03,8.369711e+02
2.978519e+03,8.354924e+02
2.989125e+03,8.328871e+02
2.999732e+03,8.465985e+02
3.010338e+03,8.345940e+02
3.020945e+03,8.258818e+02
3.031552e+03,8.262887e+02
3.042158e+03,8.335414e+02
3.052764e+03,8.108990e+02
3.063371e+03,8.186255e+02
3.073978e+03,8.134053e+02
3.084584e+03,8.127704e+02
3.095191e+03,7.928531e+02
3.105797e+03,7.990560e+02
3.116404e+03,8.096731e+02
3.127010e+03,8.101108e+02
3.137617e+03,8.268143e+02
3.148224e+03,8.181761e+02
3.158830e+03,8.301055e+02
3.169437e+03,8.448829e+02
3.180043e+03,8.022928e+02
3.190650e+03,8.230471e+02
3.200292e+03,8.505018e+02