File: RAMAN_data/13112023_r2/black fibre2.CSV
9.931763e+01,0.000000e+00
1.108884e+02,0.000000e+00
1.224592e+02,0.000000e+00
1.340300e+02,0.000000e+00
1.456008e+02,0.000000e+00
1.571716e+02,0.000000e+00
1.687424e+02,0.000000e+00
1.803132e+02,0.000000e+00
1.918840e+02,0.000000e+00
2.034548e+02,1.627558e+03
2.150256e+02,1.638741e+03
2.265964e+02,1.638712e+03
2.381673e+02,1.643666e+03
2.497381e+02,1.655690e+03
2.613088e+02,1.652828e+03
2.728796e+02,1.658740e+03
2.844504e+02,1.665182e+03
2.960212e+02,1.657960e+03
3.075920e+02,1.657557e+03
3.191628e+02,1.683903e+03
3.307336e+02,1.674281e+03
3.423044e+02,1.665876e+03
3.538752e+02,1.673948e+03
3.654461e+02,1.688386e+03
3.770169e+02,1.694208e+03
3.885877e+02,1.673766e+03
4.001585e+02,1.670533e+03
4.117293e+02,1.661966e+03
4.233001e+02,1.660462e+03
4.348709e+02,1.666538e+03
4.464417e+02,1.658012e+03
4.580125e+02,1.658852e+03
4.695833e+02,1.656820e+03
4.811541e+02,1.645830e+03
4.927249e+02,1.649343e+03
5.042957e+02,1.655559e+03
5.158665e+02,1.649595e+03
5.274373e+02,1.643340e+03
5.390081e+02,1.627965e+03
5.505789e+02,1.637645e+03
5.621497e+02,1.632443e+03
5.737205e+02,1.636863e+03
5.852913e+02,1.613378e+03
5.968621e+02,1.615712e+03
6.084329e+02,1.618521e+03
6.200037e+02,1.606511e+03
6.315745e+02,1.599959e+03
6.431453e+02,1.595604e+03
6.547161e+02,1.596305e+03
6.662869e+02,1.593665e+03
6.778577e+02,1.583948e+03
6.894285e+02,1.589674e+03
7.009993e+02,1.579821e+03
7.125701e+02,1.570929e+03
7.241409e+02,1.558484e+03
7.357117e+02,1.561267e+03
7.472825e+02,1.543649e+03
7.588533e+02,1.541717e+03
7.704241e+02,1.537740e+03
7.819949e+02,1.544830e+03
7.935657e+02,1.541982e+03
8.051365e+02,1.521088e+03
8.167073e+02,1.520629e+03
8.282781e+02,1.517485e+03
8.398489e+02,1.510720e+03
8.514197e+02,1.508644e+03
8.629905e+02,1.513365e+03
8.745613e+02,1.497698e+03
8.861321e+02,1.502590e+03
8.977029e+02,1.492301e+03
9.092737e+02,1.469123e+03
9.208445e+02,1.470499e+03
9.324153e+02,1.461414e+03
9.439861e+02,1.455497e+03
9.555569e+02,1.456859e+03
9.671277e+02,1.456539e+03
9.786985e+02,1.435212e+03
9.902693e+02,1.435720e+03
1.001840e+03,1.441595e+03
1.013411e+03,1.430535e+03
1.024982e+03,1.445664e+03
1.036552e+03,1.433714e+03
1.048123e+03,1.433089e+03
1.059694e+03,1.419381e+03
1.071265e+03,1.423566e+03
1.082836e+03,1.421581e+03
1.094406e+03,1.427794e+03
1.105977e+03,1.415269e+03
1.117548e+03,1.421145e+03
1.129119e+03,1.414635e+03
1.140690e+03,1.394397e+03
1.152261e+03,1.403958e+03
1.163831e+03,1.389292e+03
1.175402e+03,1.394416e+03
1.186973e+03,1.383080e+03
1.198544e+03,1.393480e+03
1.210115e+03,1.389211e+03
1.221685e+03,1.376629e+03
1.233256e+03,1.376109e+03
1.244827e+03,1.381984e+03
1.256398e+03,1.375124e+03
1.267969e+03,1.389427e+03
1.279539e+03,1.379836e+03
1.291110e+03,1.381285e+03
1.302681e+03,1.374090e+03
1.314252e+03,1.376202e+03
1.325823e+03,1.382450e+03
1.337393e+03,1.381507e+03
1.348964e+03,1.368645e+03
1.360535e+03,1.371000e+03
1.372106e+03,1.364284e+03
1.383677e+03,1.356127e+03
1.395247e+03,1.339777e+03
1.406818e+03,1.337151e+03
1.418389e+03,1.341330e+03
1.429960e+03,1.333544e+03
1.441531e+03,1.333152e+03
1.453101e+03,1.324426e+03
1.464672e+03,1.309670e+03
1.476243e+03,1.317127e+03
1.487814e+03,1.310357e+03
1.499385e+03,1.291959e+03
1.510955e+03,1.297552e+03
1.522526e+03,1.298327e+03
1.534097e+03,1.301616e+03
1.545668e+03,1.293461e+03
1.557239e+03,1.298684e+03
1.568809e+03,1.317395e+03
1.580380e+03,1.314806e+03
1.591951e+03,1.315259e+03
1.603522e+03,1.308091e+03
1.615093e+03,1.283540e+03
1.626663e+03,1.260903e+03
1.638234e+03,1.257816e+03
1.649805e+03,1.246968e+03
1.661376e+03,1.243829e+03
1.672947e+03,1.236432e+03
1.684517e+03,1.232910e+03
1.696088e+03,1.221585e+03
1.707659e+03,1.202927e+03
1.719230e+03,1.202721e+03
1.730801e+03,1.212354e+03
1.742371e+03,1.213866e+03
1.753942e+03,1.206727e+03
1.765513e+03,1.190442e+03
1.777084e+03,1.185232e+03
1.788655e+03,1.174220e+03
1.800225e+03,1.174147e+03
1.811796e+03,1.171399e+03
1.823367e+03,1.161888e+03
1.834938e+03,1.168708e+03
1.846509e+03,1.170553e+03
1.858079e+03,1.151833e+03
1.869650e+03,1.158807e+03
1.881221e+03,1.147667e+03
1.892792e+03,1.132453e+03
1.904363e+03,1.121237e+03
1.915933e+03,1.096308e+03
1.927504e+03,1.124342e+03
1.939075e+03,1.102234e+03
1.950646e+03,1.078191e+03
1.962217e+03,1.105165e+03
1.973787e+03,1.085754e+03
1.985358e+03,1.084495e+03
1.996929e+03,1.072403e+03
2.008500e+03,1.066013e+03
2.020071e+03,1.054030e+03
2.031641e+03,1.063010e+03
2.043212e+03,1.043560e+03
2.054783e+03,1.042338e+03
2.066354e+03,1.024609e+03
2.077925e+03,1.039299e+03
2.089496e+03,1.015102e+03
2.101066e+03,1.005014e+03
2.112637e+03,9.991324e+02
2.124208e+03,9.983361e+02
2.135779e+03,9.916845e+02
2.147350e+03,9.771406e+02
2.158920e+03,9.784519e+02
2.170491e+03,9.830768e+02
2.182062e+03,9.689717e+02
2.193633e+03,9.596400e+02
2.205204e+03,9.535685e+02
2.216774e+03,9.432264e+02
2.228345e+03,9.299425e+02
2.239916e+03,9.353963e+02
2.251487e+03,9.223585e+02
2.263058e+03,9.097460e+02
2.274628e+03,9.124269e+02
2.286199e+03,9.041773e+02
2.297770e+03,8.980881e+02
2.309341e+03,8.940969e+02
2.320912e+03,8.769764e+02
2.332482e+03,8.775447e+02
2.344053e+03,8.612269e+02
2.355624e+03,8.704222e+02
2.367195e+03,8.552191e+02
2.378766e+03,8.537360e+02
2.390336e+03,8.606495e+02
2.401907e+03,8.390466e+02
2.413478e+03,8.254200e+02
2.425049e+03,8.286677e+02
2.436620e+03,8.339285e+02
2.448190e+03,8.141898e+02
2.459761e+03,8.161892e+02
2.471332e+03,8.215609e+02
2.482903e+03,8.099613e+02
2.494474e+03,7.992610e+02
2.506044e+03,8.024250e+02
2.517615e+03,7.976553e+02
2.529186e+03,7.762848e+02
2.540757e+03,7.795084e+02
2.552328e+03,7.772682e+02
2.563898e+03,7.835574e+02
2.575469e+03,7.841915e+02
2.587040e+03,7.716085e+02
2.598611e+03,7.626420e+02
2.610182e+03,7.690612e+02
2.621752e+03,7.630236e+02
2.633323e+03,7.471691e+02
2.644894e+03,7.471028e+02
2.656465e+03,7.520624e+02
2.668036e+03,7.462078e+02
2.679606e+03,7.474713e+02
2.691177e+03,7.439304e+02
2.702748e+03,7.444874e+02
2.714319e+03,7.249408e+02
2.725890e+03,7.263800e+02
2.737460e+03,7.302952e+02
2.749031e+03,7.402297e+02
2.760602e+03,7.284315e+02
2.772173e+03,7.112645e+02
2.783744e+03,7.075685e+02
2.795314e+03,7.089083e+02
2.806885e+03,6.850740e+02
2.818456e+03,6.985162e+02
2.830027e+03,7.027269e+02
2.841598e+03,7.139688e+02
2.853168e+03,7.193390e+02
2.864739e+03,7.200424e+02
2.876310e+03,7.129786e+02
2.887881e+03,7.441129e+02
2.899452e+03,7.018198e+02
2.911022e+03,7.072761e+02
2.922593e+03,6.854651e+02
2.934164e+03,7.059516e+02
2.945735e+03,6.729727e+02
2.957306e+03,7.067308e+02
2.968876e+03,6.715177e+02
2.980447e+03,6.886415e+02
2.992018e+03,6.482442e+02
3.003589e+03,6.691824e+02
3.015160e+03,6.546506e+02
3.026730e+03,6.610549e+02
3.038301e+03,6.625624e+02
3.049872e+03,6.591722e+02
3.061443e+03,6.339247e+02
3.073014e+03,6.409574e+02
3.084584e+03,6.524605e+02
3.096155e+03,6.226446e+02
3.107726e+03,6.226163e+02
3.119297e+03,6.298334e+02
3.130868e+03,6.472991e+02
3.142438e+03,6.613030e+02
3.154009e+03,6.573705e+02
3.165580e+03,6.394958e+02
3.177151e+03,6.204554e+02
3.188722e+03,6.713143e+02
3.200292e+03,6.492584e+02
3.211863e+03,0.000000e+00
3.223434e+03,0.000000e+00
3.235005e+03,0.000000e+00
3.246576e+03,0.000000e+00
3.258146e+03,0.000000e+00
3.269717e+03,0.000000e+00
3.281288e+03,0.000000e+00
3.292859e+03,0.000000e+00
3.304430e+03,0.000000e+00
3.316000e+03,0.000000e+00
3.327571e+03,0.000000e+00
3.339142e+03,0.000000e+00
3.350713e+03,0.000000e+00
3.362284e+03,0.000000e+00
3.373854e+03,0.000000e+00
3.385425e+03,0.000000e+00
3.396996e+03,0.000000e+00
3.408567e+03,0.000000e+00
3.420138e+03,0.000000e+00
3.431708e+03,0.000000e+00
3.443279e+03,0.000000e+00
3.454850e+03,0.000000e+00
3.466421e+03,0.000000e+00
3.477992e+03,0.000000e+00
3.489563e+03,0.000000e+00
3.500169e+03,0.000000e+00