File: RAMAN_data/13112023_r2/black fibre3.CSV
9.931763e+01,0.000000e+00
1.108884e+02,0.000000e+00
1.224592e+02,0.000000e+00
1.340300e+02,0.000000e+00
1.456008e+02,0.000000e+00
1.571716e+02,0.000000e+00
1.687424e+02,0.000000e+00
1.803132e+02,0.000000e+00
1.918840e+02,0.000000e+00
2.034548e+02,1.702051e+03
2.150256e+02,1.698600e+03
2.265964e+02,1.701188e+03
2.381673e+02,1.717654e+03
2.497381e+02,1.720210e+03
2.613088e+02,1.723483e+03
2.728796e+02,1.728793e+03
2.844504e+02,1.729478e+03
2.960212e+02,1.742937e+03
3.075920e+02,1.734863e+03
3.191628e+02,1.752898e+03
3.307336e+02,1.763383e+03
3.423044e+02,1.759472e+03
3.538752e+02,1.756237e+03
3.654461e+02,1.765016e+03
3.770169e+02,1.784197e+03
3.885877e+02,1.776782e+03
4.001585e+02,1.755496e+03
4.117293e+02,1.756680e+03
4.233001e+02,1.755042e+03
4.348709e+02,1.776355e+03
4.464417e+02,1.755766e+03
4.580125e+02,1.762114e+03
4.695833e+02,1.733373e+03
4.811541e+02,1.735460e+03
4.927249e+02,1.743833e+03
5.042957e+02,1.746035e+03
5.158665e+02,1.740999e+03
5.274373e+02,1.722694e+03
5.390081e+02,1.706555e+03
5.505789e+02,1.714707e+03
5.621497e+02,1.723510e+03
5.737205e+02,1.721528e+03
5.852913e+02,1.708941e+03
5.968621e+02,1.684709e+03
6.084329e+02,1.693396e+03
6.200037e+02,1.686730e+03
6.315745e+02,1.683811e+03
6.431453e+02,1.673975e+03
6.547161e+02,1.666293e+03
6.662869e+02,1.661395e+03
6.778577e+02,1.646301e+03
6.894285e+02,1.646730e+03
7.009993e+02,1.638648e+03
7.125701e+02,1.644846e+03
7.241409e+02,1.639553e+03
7.357117e+02,1.619404e+03
7.472825e+02,1.615714e+03
7.588533e+02,1.617117e+03
7.704241e+02,1.598110e+03
7.819949e+02,1.597197e+03
7.935657e+02,1.589688e+03
8.051365e+02,1.572835e+03
8.167073e+02,1.580145e+03
8.282781e+02,1.570598e+03
8.398489e+02,1.559430e+03
8.514197e+02,1.546141e+03
8.629905e+02,1.533133e+03
8.745613e+02,1.544414e+03
8.861321e+02,1.537086e+03
8.977029e+02,1.526887e+03
9.092737e+02,1.521961e+03
9.208445e+02,1.507228e+03
9.324153e+02,1.495288e+03
9.439861e+02,1.496334e+03
9.555569e+02,1.477184e+03
9.671277e+02,1.473365e+03
9.786985e+02,1.469766e+03
9.902693e+02,1.467196e+03
1.001840e+03,1.446424e+03
1.013411e+03,1.445107e+03
1.024982e+03,1.442132e+03
1.036552e+03,1.442984e+03
1.048123e+03,1.436886e+03
1.059694e+03,1.430378e+03
1.071265e+03,1.435693e+03
1.082836e+03,1.430596e+03
1.094406e+03,1.456828e+03
1.105977e+03,1.433018e+03
1.117548e+03,1.441412e+03
1.129119e+03,1.431153e+03
1.140690e+03,1.417169e+03
1.152261e+03,1.414498e+03
1.163831e+03,1.390750e+03
1.175402e+03,1.377178e+03
1.186973e+03,1.373745e+03
1.198544e+03,1.367520e+03
1.210115e+03,1.365996e+03
1.221685e+03,1.349812e+03
1.233256e+03,1.345046e+03
1.244827e+03,1.344290e+03
1.256398e+03,1.345105e+03
1.267969e+03,1.338593e+03
1.279539e+03,1.356256e+03
1.291110e+03,1.346580e+03
1.302681e+03,1.327910e+03
1.314252e+03,1.323924e+03
1.325823e+03,1.344155e+03
1.337393e+03,1.335873e+03
1.348964e+03,1.323615e+03
1.360535e+03,1.317916e+03
1.372106e+03,1.306536e+03
1.383677e+03,1.309090e+03
1.395247e+03,1.285471e+03
1.406818e+03,1.283864e+03
1.418389e+03,1.265744e+03
1.429960e+03,1.276834e+03
1.441531e+03,1.263820e+03
1.453101e+03,1.257761e+03
1.464672e+03,1.246526e+03
1.476243e+03,1.243902e+03
1.487814e+03,1.231299e+03
1.499385e+03,1.223484e+03
1.510955e+03,1.226785e+03
1.522526e+03,1.219333e+03
1.534097e+03,1.218302e+03
1.545668e+03,1.206866e+03
1.557239e+03,1.212451e+03
1.568809e+03,1.206459e+03
1.580380e+03,1.213055e+03
1.591951e+03,1.194949e+03
1.603522e+03,1.184474e+03
1.615093e+03,1.180992e+03
1.626663e+03,1.171305e+03
1.638234e+03,1.155843e+03
1.649805e+03,1.152115e+03
1.661376e+03,1.141535e+03
1.672947e+03,1.152109e+03
1.684517e+03,1.132253e+03
1.696088e+03,1.125520e+03
1.707659e+03,1.110258e+03
1.719230e+03,1.106987e+03
1.730801e+03,1.093530e+03
1.742371e+03,1.086393e+03
1.753942e+03,1.087057e+03
1.765513e+03,1.075101e+03
1.777084e+03,1.057704e+03
1.788655e+03,1.066372e+03
1.800225e+03,1.061060e+03
1.811796e+03,1.053567e+03
1.823367e+03,1.030086e+03
1.834938e+03,1.048770e+03
1.846509e+03,9.988879e+02
1.858079e+03,1.003668e+03
1.869650e+03,1.013701e+03
1.881221e+03,9.800363e+02
1.892792e+03,9.830720e+02
1.904363e+03,9.736608e+02
1.915933e+03,9.845053e+02
1.927504e+03,9.615511e+02
1.939075e+03,9.575676e+02
1.950646e+03,9.504828e+02
1.962217e+03,9.398897e+02
1.973787e+03,9.297183e+02
1.985358e+03,9.272298e+02
1.996929e+03,9.125583e+02
2.008500e+03,9.032624e+02
2.020071e+03,8.873596e+02
2.031641e+03,8.935847e+02
2.043212e+03,8.625860e+02
2.054783e+03,8.680398e+02
2.066354e+03,8.631242e+02
2.077925e+03,8.436290e+02
2.089496e+03,8.382623e+02
2.101066e+03,8.342165e+02
2.112637e+03,8.291133e+02
2.124208e+03,8.214171e+02
2.135779e+03,8.083306e+02
2.147350e+03,7.869288e+02
2.158920e+03,8.002141e+02
2.170491e+03,7.834282e+02
2.182062e+03,7.854135e+02
2.193633e+03,7.744572e+02
2.205204e+03,7.605659e+02
2.216774e+03,7.795866e+02
2.228345e+03,7.415926e+02
2.239916e+03,7.402725e+02
2.251487e+03,7.429855e+02
2.263058e+03,7.182494e+02
2.274628e+03,7.132267e+02
2.286199e+03,6.905733e+02
2.297770e+03,7.128384e+02
2.309341e+03,6.966208e+02
2.320912e+03,6.728515e+02
2.332482e+03,6.788263e+02
2.344053e+03,6.790767e+02
2.355624e+03,6.644648e+02
2.367195e+03,6.578447e+02
2.378766e+03,6.515524e+02
2.390336e+03,6.420012e+02
2.401907e+03,6.336306e+02
2.413478e+03,6.366522e+02
2.425049e+03,6.275084e+02
2.436620e+03,6.249664e+02
2.448190e+03,6.103914e+02
2.459761e+03,6.123362e+02
2.471332e+03,6.105975e+02
2.482903e+03,6.057748e+02
2.494474e+03,5.898867e+02
2.506044e+03,5.853646e+02
2.517615e+03,5.785900e+02
2.529186e+03,5.702815e+02
2.540757e+03,5.737638e+02
2.552328e+03,5.726975e+02
2.563898e+03,5.624431e+02
2.575469e+03,5.670756e+02
2.587040e+03,5.536765e+02
2.598611e+03,5.427598e+02
2.610182e+03,5.393903e+02
2.621752e+03,5.454952e+02
2.633323e+03,5.336597e+02
2.644894e+03,5.248604e+02
2.656465e+03,5.265258e+02
2.668036e+03,5.339241e+02
2.679606e+03,5.147250e+02
2.691177e+03,5.235754e+02
2.702748e+03,5.077618e+02
2.714319e+03,5.105458e+02
2.725890e+03,4.857049e+02
2.737460e+03,4.845486e+02
2.749031e+03,4.960363e+02
2.760602e+03,4.877034e+02
2.772173e+03,4.894528e+02
2.783744e+03,4.895622e+02
2.795314e+03,4.839380e+02
2.806885e+03,4.836687e+02
2.818456e+03,4.552272e+02
2.830027e+03,4.664654e+02
2.841598e+03,4.848691e+02
2.853168e+03,4.808540e+02
2.864739e+03,4.725302e+02
2.876310e+03,5.080738e+02
2.887881e+03,5.136901e+02
2.899452e+03,4.998422e+02
2.911022e+03,4.983684e+02
2.922593e+03,4.807369e+02
2.934164e+03,4.775949e+02
2.945735e+03,4.625946e+02
2.957306e+03,4.751230e+02
2.968876e+03,4.510065e+02
2.980447e+03,4.243581e+02
2.992018e+03,4.351247e+02
3.003589e+03,4.249398e+02
3.015160e+03,4.278868e+02
3.026730e+03,4.070780e+02
3.038301e+03,3.938815e+02
3.049872e+03,4.051946e+02
3.061443e+03,4.085060e+02
3.073014e+03,4.139574e+02
3.084584e+03,4.093895e+02
3.096155e+03,3.969634e+02
3.107726e+03,4.094510e+02
3.119297e+03,4.012784e+02
3.130868e+03,4.118803e+02
3.142438e+03,4.007104e+02
3.154009e+03,4.167846e+02
3.165580e+03,4.125831e+02
3.177151e+03,3.846634e+02
3.188722e+03,3.922020e+02
3.200292e+03,4.161683e+02
3.211863e+03,0.000000e+00
3.223434e+03,0.000000e+00
3.235005e+03,0.000000e+00
3.246576e+03,0.000000e+00
3.258146e+03,0.000000e+00
3.269717e+03,0.000000e+00
3.281288e+03,0.000000e+00
3.292859e+03,0.000000e+00
3.304430e+03,0.000000e+00
3.316000e+03,0.000000e+00
3.327571e+03,0.000000e+00
3.339142e+03,0.000000e+00
3.350713e+03,0.000000e+00
3.362284e+03,0.000000e+00
3.373854e+03,0.000000e+00
3.385425e+03,0.000000e+00
3.396996e+03,0.000000e+00
3.408567e+03,0.000000e+00
3.420138e+03,0.000000e+00
3.431708e+03,0.000000e+00
3.443279e+03,0.000000e+00
3.454850e+03,0.000000e+00
3.466421e+03,0.000000e+00
3.477992e+03,0.000000e+00
3.489563e+03,0.000000e+00
3.500169e+03,0.000000e+00