File: RAMAN_data/13112023_r2/blue frag1.CSV
9.931763e+01,0.000000e+00
1.108884e+02,0.000000e+00
1.224592e+02,0.000000e+00
1.340300e+02,0.000000e+00
1.456008e+02,0.000000e+00
1.571716e+02,0.000000e+00
1.687424e+02,0.000000e+00
1.803132e+02,0.000000e+00
1.918840e+02,0.000000e+00
2.034548e+02,5.107894e+03
2.150256e+02,5.127195e+03
2.265964e+02,5.158244e+03
2.381673e+02,5.189222e+03
2.497381e+02,5.215414e+03
2.613088e+02,5.219014e+03
2.728796e+02,5.236614e+03
2.844504e+02,5.312269e+03
2.960212e+02,5.332214e+03
3.075920e+02,5.347620e+03
3.191628e+02,5.382539e+03
3.307336e+02,5.429163e+03
3.423044e+02,5.428386e+03
3.538752e+02,5.433158e+03
3.654461e+02,5.468072e+03
3.770169e+02,5.502126e+03
3.885877e+02,5.501095e+03
4.001585e+02,5.486952e+03
4.117293e+02,5.530243e+03
4.233001e+02,5.555990e+03
4.348709e+02,5.575687e+03
4.464417e+02,5.530034e+03
4.580125e+02,5.557628e+03
4.695833e+02,5.588490e+03
4.811541e+02,5.577165e+03
4.927249e+02,5.590971e+03
5.042957e+02,5.592296e+03
5.158665e+02,5.627281e+03
5.274373e+02,5.603070e+03
5.390081e+02,5.617246e+03
5.505789e+02,5.614057e+03
5.621497e+02,5.643318e+03
5.737205e+02,5.641910e+03
5.852913e+02,5.629089e+03
5.968621e+02,5.644172e+03
6.084329e+02,5.681803e+03
6.200037e+02,5.623392e+03
6.315745e+02,5.642897e+03
6.431453e+02,5.656781e+03
6.547161e+02,5.663123e+03
6.662869e+02,5.641700e+03
6.778577e+02,5.619942e+03
6.894285e+02,5.619798e+03
7.009993e+02,5.644005e+03
7.125701e+02,5.664292e+03
7.241409e+02,5.630479e+03
7.357117e+02,5.592751e+03
7.472825e+02,5.650417e+03
7.588533e+02,5.612855e+03
7.704241e+02,5.573367e+03
7.819949e+02,5.579835e+03
7.935657e+02,5.587711e+03
8.051365e+02,5.574253e+03
8.167073e+02,5.544334e+03
8.282781e+02,5.518869e+03
8.398489e+02,5.539845e+03
8.514197e+02,5.506299e+03
8.629905e+02,5.523603e+03
8.745613e+02,5.504963e+03
8.861321e+02,5.514125e+03
8.977029e+02,5.502200e+03
9.092737e+02,5.482279e+03
9.208445e+02,5.430679e+03
9.324153e+02,5.418109e+03
9.439861e+02,5.438517e+03
9.555569e+02,5.420266e+03
9.671277e+02,5.407349e+03
9.786985e+02,5.398747e+03
9.902693e+02,5.373208e+03
1.001840e+03,5.360625e+03
1.013411e+03,5.340474e+03
1.024982e+03,5.357682e+03
1.036552e+03,5.337702e+03
1.048123e+03,5.326405e+03
1.059694e+03,5.311639e+03
1.071265e+03,5.307662e+03
1.082836e+03,5.315226e+03
1.094406e+03,5.322220e+03
1.105977e+03,5.293218e+03
1.117548e+03,5.301510e+03
1.129119e+03,5.241885e+03
1.140690e+03,5.234239e+03
1.152261e+03,5.231654e+03
1.163831e+03,5.223365e+03
1.175402e+03,5.164542e+03
1.186973e+03,5.170334e+03
1.198544e+03,5.175217e+03
1.210115e+03,5.154554e+03
1.221685e+03,5.139314e+03
1.233256e+03,5.102467e+03
1.244827e+03,5.121837e+03
1.256398e+03,5.098728e+03
1.267969e+03,5.078349e+03
1.279539e+03,5.086223e+03
1.291110e+03,5.069717e+03
1.302681e+03,5.056811e+03
1.314252e+03,5.034740e+03
1.325823e+03,5.045734e+03
1.337393e+03,5.073215e+03
1.348964e+03,5.027728e+03
1.360535e+03,5.011323e+03
1.372106e+03,5.002571e+03
1.383677e+03,4.986859e+03
1.395247e+03,4.958424e+03
1.406818e+03,4.929492e+03
1.418389e+03,4.886792e+03
1.429960e+03,4.909986e+03
1.441531e+03,4.883075e+03
1.453101e+03,4.868867e+03
1.464672e+03,4.844366e+03
1.476243e+03,4.845145e+03
1.487814e+03,4.822461e+03
1.499385e+03,4.805551e+03
1.510955e+03,4.786818e+03
1.522526e+03,4.786071e+03
1.534097e+03,4.791805e+03
1.545668e+03,4.750349e+03
1.557239e+03,4.708761e+03
1.568809e+03,4.710065e+03
1.580380e+03,4.707321e+03
1.591951e+03,4.675747e+03
1.603522e+03,4.633763e+03
1.615093e+03,4.623953e+03
1.626663e+03,4.587821e+03
1.638234e+03,4.563659e+03
1.649805e+03,4.544008e+03
1.661376e+03,4.497756e+03
1.672947e+03,4.473211e+03
1.684517e+03,4.466570e+03
1.696088e+03,4.440639e+03
1.707659e+03,4.425647e+03
1.719230e+03,4.397630e+03
1.730801e+03,4.344819e+03
1.742371e+03,4.316282e+03
1.753942e+03,4.303387e+03
1.765513e+03,4.296788e+03
1.777084e+03,4.247550e+03
1.788655e+03,4.229857e+03
1.800225e+03,4.212288e+03
1.811796e+03,4.183820e+03
1.823367e+03,4.162990e+03
1.834938e+03,4.112512e+03
1.846509e+03,4.099146e+03
1.858079e+03,4.061720e+03
1.869650e+03,4.047758e+03
1.881221e+03,4.046638e+03
1.892792e+03,3.978747e+03
1.904363e+03,3.975806e+03
1.915933e+03,3.949027e+03
1.927504e+03,3.907901e+03
1.939075e+03,3.881235e+03
1.950646e+03,3.844246e+03
1.962217e+03,3.835992e+03
1.973787e+03,3.807712e+03
1.985358e+03,3.773218e+03
1.996929e+03,3.732765e+03
2.008500e+03,3.720848e+03
2.020071e+03,3.705723e+03
2.031641e+03,3.657630e+03
2.043212e+03,3.606284e+03
2.054783e+03,3.581086e+03
2.066354e+03,3.589770e+03
2.077925e+03,3.548305e+03
2.089496e+03,3.512624e+03
2.101066e+03,3.496618e+03
2.112637e+03,3.429727e+03
2.124208e+03,3.444627e+03
2.135779e+03,3.401796e+03
2.147350e+03,3.346746e+03
2.158920e+03,3.342459e+03
2.170491e+03,3.333043e+03
2.182062e+03,3.276240e+03
2.193633e+03,3.257765e+03
2.205204e+03,3.263602e+03
2.216774e+03,3.194487e+03
2.228345e+03,3.163284e+03
2.239916e+03,3.135253e+03
2.251487e+03,3.135793e+03
2.263058e+03,3.092638e+03
2.274628e+03,3.060346e+03
2.286199e+03,3.037582e+03
2.297770e+03,3.021390e+03
2.309341e+03,2.992676e+03
2.320912e+03,2.974954e+03
2.332482e+03,2.938366e+03
2.344053e+03,2.939808e+03
2.355624e+03,2.903749e+03
2.367195e+03,2.852778e+03
2.378766e+03,2.847396e+03
2.390336e+03,2.840360e+03
2.401907e+03,2.813496e+03
2.413478e+03,2.769042e+03
2.425049e+03,2.734054e+03
2.436620e+03,2.754117e+03
2.448190e+03,2.699659e+03
2.459761e+03,2.695046e+03
2.471332e+03,2.645466e+03
2.482903e+03,2.668120e+03
2.494474e+03,2.622845e+03
2.506044e+03,2.600501e+03
2.517615e+03,2.602073e+03
2.529186e+03,2.570832e+03
2.540757e+03,2.576897e+03
2.552328e+03,2.536696e+03
2.563898e+03,2.521819e+03
2.575469e+03,2.501474e+03
2.587040e+03,2.492128e+03
2.598611e+03,2.449853e+03
2.610182e+03,2.432195e+03
2.621752e+03,2.420701e+03
2.633323e+03,2.386878e+03
2.644894e+03,2.376743e+03
2.656465e+03,2.372697e+03
2.668036e+03,2.368812e+03
2.679606e+03,2.334109e+03
2.691177e+03,2.335847e+03
2.702748e+03,2.295568e+03
2.714319e+03,2.320238e+03
2.725890e+03,2.257031e+03
2.737460e+03,2.262311e+03
2.749031e+03,2.243903e+03
2.760602e+03,2.216091e+03
2.772173e+03,2.218771e+03
2.783744e+03,2.173245e+03
2.795314e+03,2.182063e+03
2.806885e+03,2.146143e+03
2.818456e+03,2.139540e+03
2.830027e+03,2.114406e+03
2.841598e+03,2.157641e+03
2.853168e+03,2.112366e+03
2.864739e+03,2.076890e+03
2.876310e+03,2.109400e+03
2.887881e+03,2.068711e+03
2.899452e+03,2.083183e+03
2.911022e+03,2.070177e+03
2.922593e+03,2.027756e+03
2.934164e+03,2.025200e+03
2.945735e+03,2.039310e+03
2.957306e+03,2.014174e+03
2.968876e+03,1.940791e+03
2.980447e+03,1.946614e+03
2.992018e+03,1.923591e+03
3.003589e+03,1.894081e+03
3.015160e+03,1.908094e+03
3.026730e+03,1.900666e+03
3.038301e+03,1.876531e+03
3.049872e+03,1.901832e+03
3.061443e+03,1.852017e+03
3.073014e+03,1.843269e+03
3.084584e+03,1.833160e+03
3.096155e+03,1.849885e+03
3.107726e+03,1.847064e+03
3.119297e+03,1.805687e+03
3.130868e+03,1.849479e+03
3.142438e+03,1.819988e+03
3.154009e+03,1.831289e+03
3.165580e+03,1.818507e+03
3.177151e+03,1.792702e+03
3.188722e+03,1.774936e+03
3.200292e+03,1.783368e+03
3.211863e+03,0.000000e+00
3.223434e+03,0.000000e+00
3.235005e+03,0.000000e+00
3.246576e+03,0.000000e+00
3.258146e+03,0.000000e+00
3.269717e+03,0.000000e+00
3.281288e+03,0.000000e+00
3.292859e+03,0.000000e+00
3.304430e+03,0.000000e+00
3.316000e+03,0.000000e+00
3.327571e+03,0.000000e+00
3.339142e+03,0.000000e+00
3.350713e+03,0.000000e+00
3.362284e+03,0.000000e+00
3.373854e+03,0.000000e+00
3.385425e+03,0.000000e+00
3.396996e+03,0.000000e+00
3.408567e+03,0.000000e+00
3.420138e+03,0.000000e+00
3.431708e+03,0.000000e+00
3.443279e+03,0.000000e+00
3.454850e+03,0.000000e+00
3.466421e+03,0.000000e+00
3.477992e+03,0.000000e+00
3.489563e+03,0.000000e+00
3.500169e+03,0.000000e+00