File: RAMAN_data/13112023_r2/blue frag4.CSV
9.931763e+01,0.000000e+00
1.108884e+02,0.000000e+00
1.224592e+02,0.000000e+00
1.340300e+02,0.000000e+00
1.456008e+02,0.000000e+00
1.571716e+02,0.000000e+00
1.687424e+02,0.000000e+00
1.803132e+02,0.000000e+00
1.918840e+02,0.000000e+00
2.034548e+02,1.051899e+04
2.150256e+02,1.057905e+04
2.265964e+02,1.068651e+04
2.381673e+02,1.083713e+04
2.497381e+02,1.092278e+04
2.613088e+02,1.101875e+04
2.728796e+02,1.114345e+04
2.844504e+02,1.128443e+04
2.960212e+02,1.138987e+04
3.075920e+02,1.148845e+04
3.191628e+02,1.160749e+04
3.307336e+02,1.173318e+04
3.423044e+02,1.185578e+04
3.538752e+02,1.194617e+04
3.654461e+02,1.203461e+04
3.770169e+02,1.217452e+04
3.885877e+02,1.227040e+04
4.001585e+02,1.234246e+04
4.117293e+02,1.242607e+04
4.233001e+02,1.253488e+04
4.348709e+02,1.261718e+04
4.464417e+02,1.261214e+04
4.580125e+02,1.270736e+04
4.695833e+02,1.274802e+04
4.811541e+02,1.282727e+04
4.927249e+02,1.287542e+04
5.042957e+02,1.293112e+04
5.158665e+02,1.299716e+04
5.274373e+02,1.304942e+04
5.390081e+02,1.309128e+04
5.505789e+02,1.310430e+04
5.621497e+02,1.316603e+04
5.737205e+02,1.322816e+04
5.852913e+02,1.325175e+04
5.968621e+02,1.324956e+04
6.084329e+02,1.326469e+04
6.200037e+02,1.322469e+04
6.315745e+02,1.322606e+04
6.431453e+02,1.319974e+04
6.547161e+02,1.323800e+04
6.662869e+02,1.324367e+04
6.778577e+02,1.317500e+04
6.894285e+02,1.316829e+04
7.009993e+02,1.316670e+04
7.125701e+02,1.319757e+04
7.241409e+02,1.315605e+04
7.357117e+02,1.314486e+04
7.472825e+02,1.319807e+04
7.588533e+02,1.307582e+04
7.704241e+02,1.300469e+04
7.819949e+02,1.301634e+04
7.935657e+02,1.301208e+04
8.051365e+02,1.293351e+04
8.167073e+02,1.293529e+04
8.282781e+02,1.288026e+04
8.398489e+02,1.289211e+04
8.514197e+02,1.280679e+04
8.629905e+02,1.279517e+04
8.745613e+02,1.275262e+04
8.861321e+02,1.273566e+04
8.977029e+02,1.268345e+04
9.092737e+02,1.261765e+04
9.208445e+02,1.257068e+04
9.324153e+02,1.252979e+04
9.439861e+02,1.248042e+04
9.555569e+02,1.241237e+04
9.671277e+02,1.236423e+04
9.786985e+02,1.232747e+04
9.902693e+02,1.225604e+04
1.001840e+03,1.221233e+04
1.013411e+03,1.215263e+04
1.024982e+03,1.211540e+04
1.036552e+03,1.205740e+04
1.048123e+03,1.200296e+04
1.059694e+03,1.197319e+04
1.071265e+03,1.193257e+04
1.082836e+03,1.187093e+04
1.094406e+03,1.177989e+04
1.105977e+03,1.171786e+04
1.117548e+03,1.168075e+04
1.129119e+03,1.159666e+04
1.140690e+03,1.153622e+04
1.152261e+03,1.152821e+04
1.163831e+03,1.144685e+04
1.175402e+03,1.136238e+04
1.186973e+03,1.130271e+04
1.198544e+03,1.130969e+04
1.210115e+03,1.124827e+04
1.221685e+03,1.116448e+04
1.233256e+03,1.111698e+04
1.244827e+03,1.113170e+04
1.256398e+03,1.107334e+04
1.267969e+03,1.104657e+04
1.279539e+03,1.103164e+04
1.291110e+03,1.100830e+04
1.302681e+03,1.096684e+04
1.314252e+03,1.083755e+04
1.325823e+03,1.084647e+04
1.337393e+03,1.087532e+04
1.348964e+03,1.076885e+04
1.360535e+03,1.065663e+04
1.372106e+03,1.065031e+04
1.383677e+03,1.058471e+04
1.395247e+03,1.053692e+04
1.406818e+03,1.045377e+04
1.418389e+03,1.043126e+04
1.429960e+03,1.037878e+04
1.441531e+03,1.029066e+04
1.453101e+03,1.022624e+04
1.464672e+03,1.018101e+04
1.476243e+03,1.011882e+04
1.487814e+03,1.004770e+04
1.499385e+03,9.944189e+03
1.510955e+03,9.958047e+03
1.522526e+03,9.908456e+03
1.534097e+03,9.918469e+03
1.545668e+03,9.816548e+03
1.557239e+03,9.762982e+03
1.568809e+03,9.720107e+03
1.580380e+03,9.656775e+03
1.591951e+03,9.602146e+03
1.603522e+03,9.546765e+03
1.615093e+03,9.532404e+03
1.626663e+03,9.360951e+03
1.638234e+03,9.300887e+03
1.649805e+03,9.239688e+03
1.661376e+03,9.223126e+03
1.672947e+03,9.110968e+03
1.684517e+03,9.030229e+03
1.696088e+03,9.035440e+03
1.707659e+03,8.986901e+03
1.719230e+03,8.898156e+03
1.730801e+03,8.817813e+03
1.742371e+03,8.773062e+03
1.753942e+03,8.712788e+03
1.765513e+03,8.652952e+03
1.777084e+03,8.559374e+03
1.788655e+03,8.521934e+03
1.800225e+03,8.478716e+03
1.811796e+03,8.392982e+03
1.823367e+03,8.339359e+03
1.834938e+03,8.292200e+03
1.846509e+03,8.225081e+03
1.858079e+03,8.184414e+03
1.869650e+03,8.105329e+03
1.881221e+03,8.019079e+03
1.892792e+03,8.001909e+03
1.904363e+03,7.852047e+03
1.915933e+03,7.834803e+03
1.927504e+03,7.784389e+03
1.939075e+03,7.726647e+03
1.950646e+03,7.673029e+03
1.962217e+03,7.613354e+03
1.973787e+03,7.541285e+03
1.985358e+03,7.433347e+03
1.996929e+03,7.397172e+03
2.008500e+03,7.372117e+03
2.020071e+03,7.267629e+03
2.031641e+03,7.177674e+03
2.043212e+03,7.141537e+03
2.054783e+03,7.063106e+03
2.066354e+03,7.008750e+03
2.077925e+03,6.922235e+03
2.089496e+03,6.895587e+03
2.101066e+03,6.811242e+03
2.112637e+03,6.734624e+03
2.124208e+03,6.699889e+03
2.135779e+03,6.615656e+03
2.147350e+03,6.520495e+03
2.158920e+03,6.491733e+03
2.170491e+03,6.446681e+03
2.182062e+03,6.360817e+03
2.193633e+03,6.287751e+03
2.205204e+03,6.254156e+03
2.216774e+03,6.201741e+03
2.228345e+03,6.087323e+03
2.239916e+03,6.013396e+03
2.251487e+03,5.974019e+03
2.263058e+03,5.943658e+03
2.274628e+03,5.845672e+03
2.286199e+03,5.752938e+03
2.297770e+03,5.743971e+03
2.309341e+03,5.690273e+03
2.320912e+03,5.632640e+03
2.332482e+03,5.598737e+03
2.344053e+03,5.514252e+03
2.355624e+03,5.487869e+03
2.367195e+03,5.424112e+03
2.378766e+03,5.360566e+03
2.390336e+03,5.334093e+03
2.401907e+03,5.233147e+03
2.413478e+03,5.195862e+03
2.425049e+03,5.160203e+03
2.436620e+03,5.118109e+03
2.448190e+03,5.037540e+03
2.459761e+03,4.987453e+03
2.471332e+03,4.929188e+03
2.482903e+03,4.921931e+03
2.494474e+03,4.855670e+03
2.506044e+03,4.825105e+03
2.517615e+03,4.799944e+03
2.529186e+03,4.740688e+03
2.540757e+03,4.676874e+03
2.552328e+03,4.625844e+03
2.563898e+03,4.601844e+03
2.575469e+03,4.531678e+03
2.587040e+03,4.491888e+03
2.598611e+03,4.482928e+03
2.610182e+03,4.463250e+03
2.621752e+03,4.353085e+03
2.633323e+03,4.326855e+03
2.644894e+03,4.313523e+03
2.656465e+03,4.274699e+03
2.668036e+03,4.204776e+03
2.679606e+03,4.199734e+03
2.691177e+03,4.149657e+03
2.702748e+03,4.113244e+03
2.714319e+03,4.062517e+03
2.725890e+03,4.025431e+03
2.737460e+03,4.011145e+03
2.749031e+03,3.979378e+03
2.760602e+03,3.951152e+03
2.772173e+03,3.929294e+03
2.783744e+03,3.861855e+03
2.795314e+03,3.896007e+03
2.806885e+03,3.820282e+03
2.818456e+03,3.782708e+03
2.830027e+03,3.768696e+03
2.841598e+03,3.758264e+03
2.853168e+03,3.711279e+03
2.864739e+03,3.691172e+03
2.876310e+03,3.726292e+03
2.887881e+03,3.651487e+03
2.899452e+03,3.598375e+03
2.911022e+03,3.615513e+03
2.922593e+03,3.554676e+03
2.934164e+03,3.495118e+03
2.945735e+03,3.486079e+03
2.957306e+03,3.462613e+03
2.968876e+03,3.447243e+03
2.980447e+03,3.398663e+03
2.992018e+03,3.351745e+03
3.003589e+03,3.337946e+03
3.015160e+03,3.303478e+03
3.026730e+03,3.300682e+03
3.038301e+03,3.282758e+03
3.049872e+03,3.244322e+03
3.061443e+03,3.263057e+03
3.073014e+03,3.229092e+03
3.084584e+03,3.228134e+03
3.096155e+03,3.206381e+03
3.107726e+03,3.176485e+03
3.119297e+03,3.140094e+03
3.130868e+03,3.071467e+03
3.142438e+03,3.104363e+03
3.154009e+03,3.215453e+03
3.165580e+03,3.149801e+03
3.177151e+03,3.115443e+03
3.188722e+03,3.190972e+03
3.200292e+03,3.146634e+03
3.211863e+03,0.000000e+00
3.223434e+03,0.000000e+00
3.235005e+03,0.000000e+00
3.246576e+03,0.000000e+00
3.258146e+03,0.000000e+00
3.269717e+03,0.000000e+00
3.281288e+03,0.000000e+00
3.292859e+03,0.000000e+00
3.304430e+03,0.000000e+00
3.316000e+03,0.000000e+00
3.327571e+03,0.000000e+00
3.339142e+03,0.000000e+00
3.350713e+03,0.000000e+00
3.362284e+03,0.000000e+00
3.373854e+03,0.000000e+00
3.385425e+03,0.000000e+00
3.396996e+03,0.000000e+00
3.408567e+03,0.000000e+00
3.420138e+03,0.000000e+00
3.431708e+03,0.000000e+00
3.443279e+03,0.000000e+00
3.454850e+03,0.000000e+00
3.466421e+03,0.000000e+00
3.477992e+03,0.000000e+00
3.489563e+03,0.000000e+00
3.500169e+03,0.000000e+00