File: RAMAN_data/06022023_r1/black fibre3.CSV
1.995979e+02,4.675490e+03
2.102045e+02,4.701280e+03
2.208110e+02,4.728546e+03
2.314176e+02,4.706651e+03
2.420242e+02,4.757583e+03
2.526307e+02,4.776970e+03
2.632373e+02,4.787905e+03
2.738439e+02,4.801317e+03
2.844504e+02,4.848608e+03
2.950570e+02,4.819293e+03
3.056636e+02,4.823743e+03
3.162701e+02,4.841943e+03
3.268767e+02,4.859805e+03
3.374833e+02,4.837517e+03
3.480898e+02,4.862420e+03
3.586964e+02,4.865221e+03
3.693030e+02,4.872638e+03
3.799095e+02,4.896308e+03
3.905161e+02,4.860717e+03
4.011227e+02,4.857534e+03
4.117292e+02,4.835757e+03
4.223358e+02,4.844268e+03
4.329424e+02,4.845676e+03
4.435490e+02,4.831034e+03
4.541555e+02,4.856634e+03
4.647621e+02,4.812671e+03
4.753687e+02,4.785503e+03
4.859752e+02,4.784519e+03
4.965818e+02,4.753320e+03
5.071884e+02,4.753951e+03
5.177949e+02,4.743380e+03
5.284015e+02,4.747720e+03
5.390081e+02,4.695026e+03
5.496146e+02,4.702787e+03
5.602212e+02,4.678508e+03
5.708278e+02,4.622485e+03
5.814343e+02,4.649486e+03
5.920409e+02,4.626974e+03
6.026475e+02,4.598165e+03
6.132540e+02,4.597712e+03
6.238606e+02,4.572248e+03
6.344672e+02,4.540787e+03
6.450737e+02,4.530326e+03
6.556803e+02,4.510896e+03
6.662869e+02,4.473686e+03
6.768934e+02,4.457403e+03
6.875000e+02,4.434091e+03
6.981066e+02,4.402698e+03
7.087131e+02,4.380862e+03
7.193197e+02,4.367521e+03
7.299263e+02,4.333881e+03
7.405328e+02,4.319002e+03
7.511394e+02,4.272462e+03
7.617460e+02,4.267276e+03
7.723525e+02,4.241094e+03
7.829591e+02,4.212185e+03
7.935657e+02,4.192462e+03
8.041722e+02,4.175728e+03
8.147788e+02,4.148690e+03
8.253854e+02,4.126562e+03
8.359919e+02,4.098913e+03
8.465985e+02,4.085822e+03
8.572051e+02,4.049090e+03
8.678116e+02,4.029162e+03
8.784182e+02,3.990049e+03
8.890248e+02,3.964572e+03
8.996313e+02,3.949726e+03
9.102379e+02,3.927584e+03
9.208445e+02,3.867856e+03
9.314510e+02,3.874164e+03
9.420576e+02,3.846223e+03
9.526642e+02,3.804436e+03
9.632708e+02,3.792687e+03
9.738773e+02,3.752643e+03
9.844839e+02,3.721210e+03
9.950905e+02,3.727988e+03
1.005697e+03,3.677624e+03
1.016304e+03,3.644326e+03
1.026910e+03,3.640898e+03
1.037517e+03,3.631697e+03
1.048123e+03,3.583255e+03
1.058730e+03,3.573093e+03
1.069336e+03,3.552149e+03
1.079943e+03,3.532059e+03
1.090550e+03,3.556027e+03
1.101156e+03,3.502969e+03
1.111763e+03,3.479244e+03
1.122369e+03,3.463145e+03
1.132976e+03,3.440133e+03
1.143582e+03,3.402822e+03
1.154189e+03,3.393031e+03
1.164796e+03,3.358915e+03
1.175402e+03,3.336844e+03
1.186009e+03,3.307177e+03
1.196615e+03,3.300902e+03
1.207222e+03,3.252704e+03
1.217828e+03,3.254104e+03
1.228435e+03,3.222614e+03
1.239042e+03,3.208506e+03
1.249648e+03,3.174102e+03
1.260255e+03,3.166194e+03
1.270861e+03,3.155308e+03
1.281468e+03,3.137008e+03
1.292074e+03,3.119331e+03
1.302681e+03,3.100529e+03
1.313287e+03,3.068114e+03
1.323894e+03,3.062116e+03
1.334501e+03,3.054731e+03
1.345107e+03,3.038363e+03
1.355714e+03,3.017603e+03
1.366320e+03,2.999291e+03
1.376927e+03,2.978443e+03
1.387533e+03,2.948727e+03
1.398140e+03,2.914192e+03
1.408747e+03,2.909532e+03
1.419353e+03,2.888753e+03
1.429960e+03,2.866059e+03
1.440566e+03,2.841084e+03
1.451173e+03,2.813044e+03
1.461779e+03,2.791223e+03
1.472386e+03,2.791111e+03
1.482993e+03,2.752495e+03
1.493599e+03,2.741413e+03
1.504206e+03,2.719637e+03
1.514812e+03,2.698004e+03
1.525419e+03,2.692035e+03
1.536025e+03,2.683711e+03
1.546632e+03,2.653632e+03
1.557239e+03,2.642961e+03
1.567845e+03,2.641941e+03
1.578452e+03,2.609211e+03
1.589058e+03,2.593657e+03
1.599665e+03,2.572059e+03
1.610271e+03,2.562408e+03
1.620878e+03,2.541048e+03
1.631484e+03,2.510746e+03
1.642091e+03,2.499330e+03
1.652698e+03,2.468850e+03
1.663304e+03,2.452493e+03
1.673911e+03,2.425906e+03
1.684517e+03,2.422343e+03
1.695124e+03,2.394749e+03
1.705730e+03,2.375961e+03
1.716337e+03,2.345282e+03
1.726944e+03,2.331626e+03
1.737550e+03,2.320813e+03
1.748157e+03,2.304419e+03
1.758763e+03,2.290588e+03
1.769370e+03,2.259687e+03
1.779976e+03,2.238054e+03
1.790583e+03,2.210319e+03
1.801190e+03,2.211373e+03
1.811796e+03,2.185852e+03
1.822403e+03,2.167745e+03
1.833009e+03,2.152526e+03
1.843616e+03,2.141303e+03
1.854222e+03,2.110875e+03
1.864829e+03,2.100062e+03
1.875436e+03,2.075010e+03
1.886042e+03,2.051930e+03
1.896649e+03,2.036977e+03
1.907255e+03,2.006884e+03
1.917862e+03,1.991752e+03
1.928468e+03,1.987700e+03
1.939075e+03,1.950626e+03
1.949682e+03,1.931291e+03
1.960288e+03,1.906723e+03
1.970895e+03,1.895026e+03
1.981501e+03,1.871348e+03
1.992108e+03,1.852149e+03
2.002714e+03,1.835706e+03
2.013321e+03,1.824495e+03
2.023927e+03,1.806464e+03
2.034534e+03,1.797673e+03
2.045141e+03,1.782038e+03
2.055747e+03,1.742315e+03
2.066354e+03,1.731722e+03
2.076960e+03,1.732276e+03
2.087567e+03,1.701391e+03
2.098173e+03,1.672182e+03
2.108780e+03,1.662249e+03
2.119387e+03,1.642084e+03
2.129993e+03,1.626357e+03
2.140600e+03,1.602697e+03
2.151206e+03,1.575521e+03
2.161813e+03,1.569699e+03
2.172419e+03,1.542576e+03
2.183026e+03,1.529152e+03
2.193633e+03,1.494825e+03
2.204239e+03,1.500380e+03
2.214846e+03,1.474144e+03
2.225452e+03,1.443482e+03
2.236059e+03,1.439220e+03
2.246666e+03,1.407095e+03
2.257272e+03,1.393545e+03
2.267879e+03,1.378678e+03
2.278485e+03,1.347159e+03
2.289092e+03,1.351017e+03
2.299698e+03,1.334336e+03
2.310305e+03,1.322292e+03
2.320911e+03,1.304333e+03
2.331518e+03,1.283027e+03
2.342125e+03,1.258021e+03
2.352731e+03,1.236843e+03
2.363338e+03,1.234208e+03
2.373944e+03,1.229552e+03
2.384551e+03,1.198813e+03
2.395157e+03,1.187679e+03
2.405764e+03,1.180498e+03
2.416370e+03,1.152646e+03
2.426977e+03,1.137014e+03
2.437584e+03,1.142076e+03
2.448190e+03,1.115650e+03
2.458797e+03,1.120830e+03
2.469403e+03,1.093097e+03
2.480010e+03,1.095396e+03
2.490616e+03,1.068830e+03
2.501223e+03,1.049190e+03
2.511830e+03,1.049172e+03
2.522436e+03,1.039030e+03
2.533043e+03,1.017103e+03
2.543649e+03,1.021560e+03
2.554256e+03,1.017201e+03
2.564863e+03,1.012417e+03
2.575469e+03,9.951954e+02
2.586075e+03,9.549644e+02
2.596682e+03,9.652970e+02
2.607289e+03,9.558024e+02
2.617895e+03,9.567726e+02
2.628502e+03,9.244800e+02
2.639108e+03,9.304189e+02
2.649715e+03,9.042164e+02
2.660322e+03,9.061654e+02
2.670928e+03,8.973978e+02
2.681535e+03,8.921530e+02
2.692141e+03,8.940815e+02
2.702748e+03,8.631500e+02
2.713354e+03,8.625818e+02
2.723961e+03,8.701900e+02
2.734568e+03,8.387071e+02
2.745174e+03,8.590157e+02
2.755781e+03,8.377316e+02
2.766387e+03,8.182010e+02
2.776994e+03,8.172903e+02
2.787600e+03,8.040574e+02
2.798207e+03,8.162074e+02
2.808813e+03,8.003773e+02
2.819420e+03,7.974691e+02
2.830027e+03,7.802654e+02
2.840633e+03,7.866082e+02
2.851240e+03,7.794698e+02
2.861846e+03,7.914152e+02
2.872453e+03,7.897256e+02
2.883059e+03,8.039258e+02
2.893666e+03,8.071319e+02
2.904273e+03,8.036942e+02
2.914879e+03,7.724367e+02
2.925486e+03,7.563810e+02
2.936092e+03,7.521887e+02
2.946699e+03,7.594855e+02
2.957305e+03,7.588570e+02
2.967912e+03,7.460157e+02
2.978519e+03,7.111649e+02
2.989125e+03,6.716357e+02
2.999732e+03,6.835983e+02
3.010338e+03,7.284003e+02
3.020945e+03,6.921557e+02
3.031552e+03,6.845643e+02
3.042158e+03,6.745491e+02
3.052764e+03,6.660537e+02
3.063371e+03,7.221664e+02
3.073978e+03,6.936352e+02
3.084584e+03,6.727844e+02
3.095191e+03,6.764551e+02
3.105797e+03,6.444886e+02
3.116404e+03,6.724970e+02
3.127010e+03,6.720720e+02
3.137617e+03,6.534041e+02
3.148224e+03,6.210986e+02
3.158830e+03,7.005087e+02
3.169437e+03,6.373596e+02
3.180043e+03,6.852744e+02
3.190650e+03,6.606375e+02
3.200292e+03,7.005904e+02