File: RAMAN_data/06022023_r1/black fibre10.CSV
1.995979e+02,2.904366e+03
2.102045e+02,2.916887e+03
2.208110e+02,2.924159e+03
2.314176e+02,2.934188e+03
2.420242e+02,2.932081e+03
2.526307e+02,2.950930e+03
2.632373e+02,2.957066e+03
2.738439e+02,2.972345e+03
2.844504e+02,2.988085e+03
2.950570e+02,2.979398e+03
3.056636e+02,2.973040e+03
3.162701e+02,2.987922e+03
3.268767e+02,2.992653e+03
3.374833e+02,2.990429e+03
3.480898e+02,2.986357e+03
3.586964e+02,2.989625e+03
3.693030e+02,2.984222e+03
3.799095e+02,3.008109e+03
3.905161e+02,2.986363e+03
4.011227e+02,2.973670e+03
4.117292e+02,2.967178e+03
4.223358e+02,2.960021e+03
4.329424e+02,2.964951e+03
4.435490e+02,2.949821e+03
4.541555e+02,2.941204e+03
4.647621e+02,2.919380e+03
4.753687e+02,2.922597e+03
4.859752e+02,2.929473e+03
4.965818e+02,2.922749e+03
5.071884e+02,2.895008e+03
5.177949e+02,2.894433e+03
5.284015e+02,2.873247e+03
5.390081e+02,2.852844e+03
5.496146e+02,2.845234e+03
5.602212e+02,2.833018e+03
5.708278e+02,2.806921e+03
5.814343e+02,2.805265e+03
5.920409e+02,2.793226e+03
6.026475e+02,2.780446e+03
6.132540e+02,2.756753e+03
6.238606e+02,2.745226e+03
6.344672e+02,2.730311e+03
6.450737e+02,2.713601e+03
6.556803e+02,2.701084e+03
6.662869e+02,2.684360e+03
6.768934e+02,2.671367e+03
6.875000e+02,2.648056e+03
6.981066e+02,2.638722e+03
7.087131e+02,2.608688e+03
7.193197e+02,2.589116e+03
7.299263e+02,2.583765e+03
7.405328e+02,2.566042e+03
7.511394e+02,2.555583e+03
7.617460e+02,2.522787e+03
7.723525e+02,2.503738e+03
7.829591e+02,2.493175e+03
7.935657e+02,2.474432e+03
8.041722e+02,2.474459e+03
8.147788e+02,2.432331e+03
8.253854e+02,2.424058e+03
8.359919e+02,2.415134e+03
8.465985e+02,2.392332e+03
8.572051e+02,2.373715e+03
8.678116e+02,2.368352e+03
8.784182e+02,2.345929e+03
8.890248e+02,2.348814e+03
8.996313e+02,2.320828e+03
9.102379e+02,2.288957e+03
9.208445e+02,2.274940e+03
9.314510e+02,2.273659e+03
9.420576e+02,2.259381e+03
9.526642e+02,2.231528e+03
9.632708e+02,2.230736e+03
9.738773e+02,2.216632e+03
9.844839e+02,2.202664e+03
9.950905e+02,2.178612e+03
1.005697e+03,2.169167e+03
1.016304e+03,2.151729e+03
1.026910e+03,2.140058e+03
1.037517e+03,2.138583e+03
1.048123e+03,2.107452e+03
1.058730e+03,2.094364e+03
1.069336e+03,2.099578e+03
1.079943e+03,2.077250e+03
1.090550e+03,2.109416e+03
1.101156e+03,2.080111e+03
1.111763e+03,2.068300e+03
1.122369e+03,2.063312e+03
1.132976e+03,2.046332e+03
1.143582e+03,2.034209e+03
1.154189e+03,2.028202e+03
1.164796e+03,2.008053e+03
1.175402e+03,1.980433e+03
1.186009e+03,1.970958e+03
1.196615e+03,1.946996e+03
1.207222e+03,1.939419e+03
1.217828e+03,1.942205e+03
1.228435e+03,1.947372e+03
1.239042e+03,1.913718e+03
1.249648e+03,1.903908e+03
1.260255e+03,1.902545e+03
1.270861e+03,1.885294e+03
1.281468e+03,1.900857e+03
1.292074e+03,1.887480e+03
1.302681e+03,1.870411e+03
1.313287e+03,1.842103e+03
1.323894e+03,1.857528e+03
1.334501e+03,1.847159e+03
1.345107e+03,1.842305e+03
1.355714e+03,1.840152e+03
1.366320e+03,1.841546e+03
1.376927e+03,1.812667e+03
1.387533e+03,1.786054e+03
1.398140e+03,1.785064e+03
1.408747e+03,1.782339e+03
1.419353e+03,1.769172e+03
1.429960e+03,1.757212e+03
1.440566e+03,1.727137e+03
1.451173e+03,1.733365e+03
1.461779e+03,1.712276e+03
1.472386e+03,1.716706e+03
1.482993e+03,1.698841e+03
1.493599e+03,1.682301e+03
1.504206e+03,1.667718e+03
1.514812e+03,1.671721e+03
1.525419e+03,1.657759e+03
1.536025e+03,1.658711e+03
1.546632e+03,1.634874e+03
1.557239e+03,1.636617e+03
1.567845e+03,1.645155e+03
1.578452e+03,1.628906e+03
1.589058e+03,1.612612e+03
1.599665e+03,1.599716e+03
1.610271e+03,1.584982e+03
1.620878e+03,1.574904e+03
1.631484e+03,1.563238e+03
1.642091e+03,1.538031e+03
1.652698e+03,1.531857e+03
1.663304e+03,1.520281e+03
1.673911e+03,1.507753e+03
1.684517e+03,1.481433e+03
1.695124e+03,1.479690e+03
1.705730e+03,1.478362e+03
1.716337e+03,1.450980e+03
1.726944e+03,1.447565e+03
1.737550e+03,1.439033e+03
1.748157e+03,1.425372e+03
1.758763e+03,1.419301e+03
1.769370e+03,1.406464e+03
1.779976e+03,1.397886e+03
1.790583e+03,1.371403e+03
1.801190e+03,1.368402e+03
1.811796e+03,1.357143e+03
1.822403e+03,1.346287e+03
1.833009e+03,1.333348e+03
1.843616e+03,1.315329e+03
1.854222e+03,1.301015e+03
1.864829e+03,1.296989e+03
1.875436e+03,1.283774e+03
1.886042e+03,1.260301e+03
1.896649e+03,1.249545e+03
1.907255e+03,1.246986e+03
1.917862e+03,1.226970e+03
1.928468e+03,1.213827e+03
1.939075e+03,1.206822e+03
1.949682e+03,1.188378e+03
1.960288e+03,1.176666e+03
1.970895e+03,1.181325e+03
1.981501e+03,1.164929e+03
1.992108e+03,1.130002e+03
2.002714e+03,1.131137e+03
2.013321e+03,1.119636e+03
2.023927e+03,1.104378e+03
2.034534e+03,1.093421e+03
2.045141e+03,1.085020e+03
2.055747e+03,1.068342e+03
2.066354e+03,1.047071e+03
2.076960e+03,1.031516e+03
2.087567e+03,1.029217e+03
2.098173e+03,1.020005e+03
2.108780e+03,1.015376e+03
2.119387e+03,9.938376e+02
2.129993e+03,9.827183e+02
2.140600e+03,9.820095e+02
2.151206e+03,9.753400e+02
2.161813e+03,9.523442e+02
2.172419e+03,9.474169e+02
2.183026e+03,9.285413e+02
2.193633e+03,9.236198e+02
2.204239e+03,9.064884e+02
2.214846e+03,8.973194e+02
2.225452e+03,8.895179e+02
2.236059e+03,8.650352e+02
2.246666e+03,8.559973e+02
2.257272e+03,8.558701e+02
2.267879e+03,8.460759e+02
2.278485e+03,8.367206e+02
2.289092e+03,8.206713e+02
2.299698e+03,8.154473e+02
2.310305e+03,8.020997e+02
2.320911e+03,7.932977e+02
2.331518e+03,7.841690e+02
2.342125e+03,7.791091e+02
2.352731e+03,7.667930e+02
2.363338e+03,7.635862e+02
2.373944e+03,7.422908e+02
2.384551e+03,7.314607e+02
2.395157e+03,7.381008e+02
2.405764e+03,7.288373e+02
2.416370e+03,7.121931e+02
2.426977e+03,7.175951e+02
2.437584e+03,6.981107e+02
2.448190e+03,6.834044e+02
2.458797e+03,6.911399e+02
2.469403e+03,6.751699e+02
2.480010e+03,6.583370e+02
2.490616e+03,6.544647e+02
2.501223e+03,6.679681e+02
2.511830e+03,6.614882e+02
2.522436e+03,6.453969e+02
2.533043e+03,6.438777e+02
2.543649e+03,6.331768e+02
2.554256e+03,6.371712e+02
2.564863e+03,6.178971e+02
2.575469e+03,6.239612e+02
2.586075e+03,5.960574e+02
2.596682e+03,6.099908e+02
2.607289e+03,6.008038e+02
2.617895e+03,5.869402e+02
2.628502e+03,5.921762e+02
2.639108e+03,5.986223e+02
2.649715e+03,5.591254e+02
2.660322e+03,5.619398e+02
2.670928e+03,5.686019e+02
2.681535e+03,5.689438e+02
2.692141e+03,5.412433e+02
2.702748e+03,5.576697e+02
2.713354e+03,5.448057e+02
2.723961e+03,5.405115e+02
2.734568e+03,5.533311e+02
2.745174e+03,5.417758e+02
2.755781e+03,5.174259e+02
2.766387e+03,5.256572e+02
2.776994e+03,5.241335e+02
2.787600e+03,5.084375e+02
2.798207e+03,5.169453e+02
2.808813e+03,5.037493e+02
2.819420e+03,5.189910e+02
2.830027e+03,5.182331e+02
2.840633e+03,4.964386e+02
2.851240e+03,5.019897e+02
2.861846e+03,5.105931e+02
2.872453e+03,5.157582e+02
2.883059e+03,5.109676e+02
2.893666e+03,5.113913e+02
2.904273e+03,5.116342e+02
2.914879e+03,5.026042e+02
2.925486e+03,5.003900e+02
2.936092e+03,4.681192e+02
2.946699e+03,4.921552e+02
2.957305e+03,5.412059e+02
2.967912e+03,4.932241e+02
2.978519e+03,4.614316e+02
2.989125e+03,4.496009e+02
2.999732e+03,4.447660e+02
3.010338e+03,4.469758e+02
3.020945e+03,4.418988e+02
3.031552e+03,4.311856e+02
3.042158e+03,4.523883e+02
3.052764e+03,4.445199e+02
3.063371e+03,4.405660e+02
3.073978e+03,4.190481e+02
3.084584e+03,4.264330e+02
3.095191e+03,4.381845e+02
3.105797e+03,4.228539e+02
3.116404e+03,4.248569e+02
3.127010e+03,4.539993e+02
3.137617e+03,4.369123e+02
3.148224e+03,4.462163e+02
3.158830e+03,4.240321e+02
3.169437e+03,4.594137e+02
3.180043e+03,4.369253e+02
3.190650e+03,4.278241e+02
3.200292e+03,4.674590e+02