File: RAMAN_data/06022023_r1/black fibre9.CSV
1.995979e+02,2.655956e+03
2.102045e+02,2.686594e+03
2.208110e+02,2.702740e+03
2.314176e+02,2.695315e+03
2.420242e+02,2.695028e+03
2.526307e+02,2.727459e+03
2.632373e+02,2.739965e+03
2.738439e+02,2.737186e+03
2.844504e+02,2.763958e+03
2.950570e+02,2.733574e+03
3.056636e+02,2.740594e+03
3.162701e+02,2.752829e+03
3.268767e+02,2.763209e+03
3.374833e+02,2.756495e+03
3.480898e+02,2.747766e+03
3.586964e+02,2.753055e+03
3.693030e+02,2.752937e+03
3.799095e+02,2.764641e+03
3.905161e+02,2.748816e+03
4.011227e+02,2.728452e+03
4.117292e+02,2.722928e+03
4.223358e+02,2.722881e+03
4.329424e+02,2.717053e+03
4.435490e+02,2.715882e+03
4.541555e+02,2.713202e+03
4.647621e+02,2.686867e+03
4.753687e+02,2.685278e+03
4.859752e+02,2.699421e+03
4.965818e+02,2.675922e+03
5.071884e+02,2.658448e+03
5.177949e+02,2.646734e+03
5.284015e+02,2.630722e+03
5.390081e+02,2.613927e+03
5.496146e+02,2.598604e+03
5.602212e+02,2.602839e+03
5.708278e+02,2.571393e+03
5.814343e+02,2.571817e+03
5.920409e+02,2.559560e+03
6.026475e+02,2.541796e+03
6.132540e+02,2.539347e+03
6.238606e+02,2.511571e+03
6.344672e+02,2.512543e+03
6.450737e+02,2.472054e+03
6.556803e+02,2.485168e+03
6.662869e+02,2.454934e+03
6.768934e+02,2.428058e+03
6.875000e+02,2.433954e+03
6.981066e+02,2.412238e+03
7.087131e+02,2.401652e+03
7.193197e+02,2.385405e+03
7.299263e+02,2.367074e+03
7.405328e+02,2.361562e+03
7.511394e+02,2.329434e+03
7.617460e+02,2.324299e+03
7.723525e+02,2.301441e+03
7.829591e+02,2.293177e+03
7.935657e+02,2.289689e+03
8.041722e+02,2.263806e+03
8.147788e+02,2.249860e+03
8.253854e+02,2.216238e+03
8.359919e+02,2.216063e+03
8.465985e+02,2.196327e+03
8.572051e+02,2.196313e+03
8.678116e+02,2.174479e+03
8.784182e+02,2.162746e+03
8.890248e+02,2.157989e+03
8.996313e+02,2.133777e+03
9.102379e+02,2.123797e+03
9.208445e+02,2.102922e+03
9.314510e+02,2.079900e+03
9.420576e+02,2.064554e+03
9.526642e+02,2.055014e+03
9.632708e+02,2.054411e+03
9.738773e+02,2.017268e+03
9.844839e+02,2.005398e+03
9.950905e+02,2.002659e+03
1.005697e+03,1.980744e+03
1.016304e+03,1.957740e+03
1.026910e+03,1.946343e+03
1.037517e+03,1.945290e+03
1.048123e+03,1.932175e+03
1.058730e+03,1.936071e+03
1.069336e+03,1.908882e+03
1.079943e+03,1.912580e+03
1.090550e+03,1.937197e+03
1.101156e+03,1.901712e+03
1.111763e+03,1.886022e+03
1.122369e+03,1.890376e+03
1.132976e+03,1.862582e+03
1.143582e+03,1.859529e+03
1.154189e+03,1.853062e+03
1.164796e+03,1.825482e+03
1.175402e+03,1.811773e+03
1.186009e+03,1.794828e+03
1.196615e+03,1.785684e+03
1.207222e+03,1.782119e+03
1.217828e+03,1.769653e+03
1.228435e+03,1.759573e+03
1.239042e+03,1.752826e+03
1.249648e+03,1.737410e+03
1.260255e+03,1.727186e+03
1.270861e+03,1.724681e+03
1.281468e+03,1.721158e+03
1.292074e+03,1.717057e+03
1.302681e+03,1.702713e+03
1.313287e+03,1.680927e+03
1.323894e+03,1.687701e+03
1.334501e+03,1.697249e+03
1.345107e+03,1.671841e+03
1.355714e+03,1.661115e+03
1.366320e+03,1.653798e+03
1.376927e+03,1.635256e+03
1.387533e+03,1.632460e+03
1.398140e+03,1.616492e+03
1.408747e+03,1.602135e+03
1.419353e+03,1.600889e+03
1.429960e+03,1.570538e+03
1.440566e+03,1.559783e+03
1.451173e+03,1.549203e+03
1.461779e+03,1.549405e+03
1.472386e+03,1.540807e+03
1.482993e+03,1.531105e+03
1.493599e+03,1.521714e+03
1.504206e+03,1.511923e+03
1.514812e+03,1.485476e+03
1.525419e+03,1.494293e+03
1.536025e+03,1.483806e+03
1.546632e+03,1.465222e+03
1.557239e+03,1.470958e+03
1.567845e+03,1.467298e+03
1.578452e+03,1.465895e+03
1.589058e+03,1.453672e+03
1.599665e+03,1.435284e+03
1.610271e+03,1.422021e+03
1.620878e+03,1.412617e+03
1.631484e+03,1.409348e+03
1.642091e+03,1.379603e+03
1.652698e+03,1.366736e+03
1.663304e+03,1.375807e+03
1.673911e+03,1.354866e+03
1.684517e+03,1.353546e+03
1.695124e+03,1.328279e+03
1.705730e+03,1.329650e+03
1.716337e+03,1.314879e+03
1.726944e+03,1.299595e+03
1.737550e+03,1.290579e+03
1.748157e+03,1.279541e+03
1.758763e+03,1.274825e+03
1.769370e+03,1.271921e+03
1.779976e+03,1.234928e+03
1.790583e+03,1.243259e+03
1.801190e+03,1.225597e+03
1.811796e+03,1.224670e+03
1.822403e+03,1.199594e+03
1.833009e+03,1.198487e+03
1.843616e+03,1.183374e+03
1.854222e+03,1.185542e+03
1.864829e+03,1.166984e+03
1.875436e+03,1.156819e+03
1.886042e+03,1.141482e+03
1.896649e+03,1.133920e+03
1.907255e+03,1.118502e+03
1.917862e+03,1.106540e+03
1.928468e+03,1.095130e+03
1.939075e+03,1.091969e+03
1.949682e+03,1.071947e+03
1.960288e+03,1.068029e+03
1.970895e+03,1.041974e+03
1.981501e+03,1.043252e+03
1.992108e+03,1.038032e+03
2.002714e+03,1.025976e+03
2.013321e+03,1.005704e+03
2.023927e+03,9.925659e+02
2.034534e+03,9.811201e+02
2.045141e+03,9.521261e+02
2.055747e+03,9.581562e+02
2.066354e+03,9.484171e+02
2.076960e+03,9.433779e+02
2.087567e+03,9.273806e+02
2.098173e+03,9.206328e+02
2.108780e+03,9.156471e+02
2.119387e+03,8.926379e+02
2.129993e+03,8.810021e+02
2.140600e+03,8.812548e+02
2.151206e+03,8.683314e+02
2.161813e+03,8.541857e+02
2.172419e+03,8.425871e+02
2.183026e+03,8.433951e+02
2.193633e+03,8.254637e+02
2.204239e+03,8.250908e+02
2.214846e+03,8.154933e+02
2.225452e+03,7.910515e+02
2.236059e+03,7.891276e+02
2.246666e+03,7.833470e+02
2.257272e+03,7.657503e+02
2.267879e+03,7.586191e+02
2.278485e+03,7.598606e+02
2.289092e+03,7.393602e+02
2.299698e+03,7.299215e+02
2.310305e+03,7.128161e+02
2.320911e+03,7.173433e+02
2.331518e+03,6.984275e+02
2.342125e+03,7.009008e+02
2.352731e+03,6.875821e+02
2.363338e+03,6.819505e+02
2.373944e+03,6.725840e+02
2.384551e+03,6.538280e+02
2.395157e+03,6.630672e+02
2.405764e+03,6.583768e+02
2.416370e+03,6.438843e+02
2.426977e+03,6.412016e+02
2.437584e+03,6.272136e+02
2.448190e+03,6.138300e+02
2.458797e+03,6.217117e+02
2.469403e+03,6.016829e+02
2.480010e+03,6.104203e+02
2.490616e+03,5.800986e+02
2.501223e+03,5.860712e+02
2.511830e+03,5.803371e+02
2.522436e+03,5.729174e+02
2.533043e+03,5.769488e+02
2.543649e+03,5.573284e+02
2.554256e+03,5.696542e+02
2.564863e+03,5.657689e+02
2.575469e+03,5.591693e+02
2.586075e+03,5.421430e+02
2.596682e+03,5.233452e+02
2.607289e+03,5.285863e+02
2.617895e+03,5.424767e+02
2.628502e+03,5.220707e+02
2.639108e+03,5.172925e+02
2.649715e+03,4.986301e+02
2.660322e+03,4.835154e+02
2.670928e+03,5.063540e+02
2.681535e+03,5.033595e+02
2.692141e+03,4.924901e+02
2.702748e+03,5.004978e+02
2.713354e+03,4.817656e+02
2.723961e+03,4.847482e+02
2.734568e+03,4.906925e+02
2.745174e+03,4.668768e+02
2.755781e+03,4.638429e+02
2.766387e+03,4.643637e+02
2.776994e+03,4.641015e+02
2.787600e+03,4.477133e+02
2.798207e+03,4.658797e+02
2.808813e+03,4.582797e+02
2.819420e+03,4.581180e+02
2.830027e+03,4.525525e+02
2.840633e+03,4.467504e+02
2.851240e+03,4.536156e+02
2.861846e+03,4.673584e+02
2.872453e+03,4.488417e+02
2.883059e+03,4.671844e+02
2.893666e+03,4.770460e+02
2.904273e+03,4.784031e+02
2.914879e+03,4.311467e+02
2.925486e+03,4.548111e+02
2.936092e+03,4.255860e+02
2.946699e+03,4.326486e+02
2.957305e+03,4.854715e+02
2.967912e+03,4.324499e+02
2.978519e+03,4.205102e+02
2.989125e+03,3.933052e+02
2.999732e+03,3.814656e+02
3.010338e+03,4.161718e+02
3.020945e+03,3.914405e+02
3.031552e+03,3.766000e+02
3.042158e+03,3.954378e+02
3.052764e+03,3.803460e+02
3.063371e+03,3.733963e+02
3.073978e+03,4.049166e+02
3.084584e+03,3.949805e+02
3.095191e+03,3.804295e+02
3.105797e+03,3.790020e+02
3.116404e+03,4.082811e+02
3.127010e+03,3.782751e+02
3.137617e+03,4.325908e+02
3.148224e+03,3.678520e+02
3.158830e+03,3.909679e+02
3.169437e+03,3.994491e+02
3.180043e+03,3.807208e+02
3.190650e+03,3.765082e+02
3.200292e+03,4.108522e+02