File: RAMAN_data/06022023_r1/black fibre11.CSV
1.995979e+02,7.086858e+03
2.102045e+02,7.198859e+03
2.208110e+02,7.227564e+03
2.314176e+02,7.269881e+03
2.420242e+02,7.308797e+03
2.526307e+02,7.399900e+03
2.632373e+02,7.481670e+03
2.738439e+02,7.548978e+03
2.844504e+02,7.657072e+03
2.950570e+02,7.659927e+03
3.056636e+02,7.714567e+03
3.162701e+02,7.785931e+03
3.268767e+02,7.837796e+03
3.374833e+02,7.883124e+03
3.480898e+02,7.943857e+03
3.586964e+02,8.000445e+03
3.693030e+02,8.034944e+03
3.799095e+02,8.078545e+03
3.905161e+02,8.138075e+03
4.011227e+02,8.156139e+03
4.117292e+02,8.167964e+03
4.223358e+02,8.210418e+03
4.329424e+02,8.260037e+03
4.435490e+02,8.263633e+03
4.541555e+02,8.346854e+03
4.647621e+02,8.392164e+03
4.753687e+02,8.377372e+03
4.859752e+02,8.402708e+03
4.965818e+02,8.428595e+03
5.071884e+02,8.421394e+03
5.177949e+02,8.495049e+03
5.284015e+02,8.470281e+03
5.390081e+02,8.475235e+03
5.496146e+02,8.495019e+03
5.602212e+02,8.515564e+03
5.708278e+02,8.490092e+03
5.814343e+02,8.568792e+03
5.920409e+02,8.605622e+03
6.026475e+02,8.593716e+03
6.132540e+02,8.568544e+03
6.238606e+02,8.597150e+03
6.344672e+02,8.612971e+03
6.450737e+02,8.566961e+03
6.556803e+02,8.588050e+03
6.662869e+02,8.583466e+03
6.768934e+02,8.585353e+03
6.875000e+02,8.574949e+03
6.981066e+02,8.575279e+03
7.087131e+02,8.554854e+03
7.193197e+02,8.523229e+03
7.299263e+02,8.544097e+03
7.405328e+02,8.539502e+03
7.511394e+02,8.502104e+03
7.617460e+02,8.526520e+03
7.723525e+02,8.458741e+03
7.829591e+02,8.474265e+03
7.935657e+02,8.494832e+03
8.041722e+02,8.489128e+03
8.147788e+02,8.442607e+03
8.253854e+02,8.428393e+03
8.359919e+02,8.418149e+03
8.465985e+02,8.419582e+03
8.572051e+02,8.439397e+03
8.678116e+02,8.357026e+03
8.784182e+02,8.360709e+03
8.890248e+02,8.377592e+03
8.996313e+02,8.329516e+03
9.102379e+02,8.274421e+03
9.208445e+02,8.230188e+03
9.314510e+02,8.256170e+03
9.420576e+02,8.271134e+03
9.526642e+02,8.164409e+03
9.632708e+02,8.166991e+03
9.738773e+02,8.137853e+03
9.844839e+02,8.125560e+03
9.950905e+02,8.112878e+03
1.005697e+03,8.098135e+03
1.016304e+03,8.052140e+03
1.026910e+03,8.060922e+03
1.037517e+03,8.048452e+03
1.048123e+03,8.019511e+03
1.058730e+03,8.000942e+03
1.069336e+03,7.965068e+03
1.079943e+03,7.934580e+03
1.090550e+03,7.962833e+03
1.101156e+03,7.911893e+03
1.111763e+03,7.886022e+03
1.122369e+03,7.894148e+03
1.132976e+03,7.890264e+03
1.143582e+03,7.857155e+03
1.154189e+03,7.887603e+03
1.164796e+03,7.845174e+03
1.175402e+03,7.763299e+03
1.186009e+03,7.737567e+03
1.196615e+03,7.735623e+03
1.207222e+03,7.689948e+03
1.217828e+03,7.668323e+03
1.228435e+03,7.703329e+03
1.239042e+03,7.677170e+03
1.249648e+03,7.625456e+03
1.260255e+03,7.640009e+03
1.270861e+03,7.665472e+03
1.281468e+03,7.638569e+03
1.292074e+03,7.592397e+03
1.302681e+03,7.591319e+03
1.313287e+03,7.567570e+03
1.323894e+03,7.585119e+03
1.334501e+03,7.577803e+03
1.345107e+03,7.569015e+03
1.355714e+03,7.689126e+03
1.366320e+03,7.614477e+03
1.376927e+03,7.654817e+03
1.387533e+03,7.496224e+03
1.398140e+03,7.420609e+03
1.408747e+03,7.347426e+03
1.419353e+03,7.332158e+03
1.429960e+03,7.297477e+03
1.440566e+03,7.283534e+03
1.451173e+03,7.287350e+03
1.461779e+03,7.265028e+03
1.472386e+03,7.256845e+03
1.482993e+03,7.224869e+03
1.493599e+03,7.214178e+03
1.504206e+03,7.149952e+03
1.514812e+03,7.119425e+03
1.525419e+03,7.087010e+03
1.536025e+03,7.055274e+03
1.546632e+03,7.077944e+03
1.557239e+03,7.065442e+03
1.567845e+03,7.036759e+03
1.578452e+03,6.981169e+03
1.589058e+03,6.982278e+03
1.599665e+03,6.972188e+03
1.610271e+03,6.918530e+03
1.620878e+03,6.919339e+03
1.631484e+03,6.876482e+03
1.642091e+03,6.846093e+03
1.652698e+03,6.795135e+03
1.663304e+03,6.759908e+03
1.673911e+03,6.726699e+03
1.684517e+03,6.704690e+03
1.695124e+03,6.679085e+03
1.705730e+03,6.661514e+03
1.716337e+03,6.614092e+03
1.726944e+03,6.573772e+03
1.737550e+03,6.530813e+03
1.748157e+03,6.536128e+03
1.758763e+03,6.485395e+03
1.769370e+03,6.450084e+03
1.779976e+03,6.428911e+03
1.790583e+03,6.361833e+03
1.801190e+03,6.366481e+03
1.811796e+03,6.323674e+03
1.822403e+03,6.299105e+03
1.833009e+03,6.278019e+03
1.843616e+03,6.247161e+03
1.854222e+03,6.177430e+03
1.864829e+03,6.171837e+03
1.875436e+03,6.127542e+03
1.886042e+03,6.102889e+03
1.896649e+03,6.028141e+03
1.907255e+03,6.042042e+03
1.917862e+03,5.969917e+03
1.928468e+03,5.936375e+03
1.939075e+03,5.917557e+03
1.949682e+03,5.853942e+03
1.960288e+03,5.837708e+03
1.970895e+03,5.794057e+03
1.981501e+03,5.768011e+03
1.992108e+03,5.718623e+03
2.002714e+03,5.706870e+03
2.013321e+03,5.660070e+03
2.023927e+03,5.621693e+03
2.034534e+03,5.615384e+03
2.045141e+03,5.545390e+03
2.055747e+03,5.473547e+03
2.066354e+03,5.464123e+03
2.076960e+03,5.418656e+03
2.087567e+03,5.398786e+03
2.098173e+03,5.369854e+03
2.108780e+03,5.351170e+03
2.119387e+03,5.289908e+03
2.129993e+03,5.226686e+03
2.140600e+03,5.209320e+03
2.151206e+03,5.188789e+03
2.161813e+03,5.124532e+03
2.172419e+03,5.083033e+03
2.183026e+03,5.053752e+03
2.193633e+03,5.047505e+03
2.204239e+03,4.982139e+03
2.214846e+03,4.953446e+03
2.225452e+03,4.881486e+03
2.236059e+03,4.853768e+03
2.246666e+03,4.816359e+03
2.257272e+03,4.775771e+03
2.267879e+03,4.758046e+03
2.278485e+03,4.700360e+03
2.289092e+03,4.686252e+03
2.299698e+03,4.676401e+03
2.310305e+03,4.605284e+03
2.320911e+03,4.575031e+03
2.331518e+03,4.569285e+03
2.342125e+03,4.521804e+03
2.352731e+03,4.459787e+03
2.363338e+03,4.459007e+03
2.373944e+03,4.422870e+03
2.384551e+03,4.367557e+03
2.395157e+03,4.378772e+03
2.405764e+03,4.349038e+03
2.416370e+03,4.266828e+03
2.426977e+03,4.270112e+03
2.437584e+03,4.239712e+03
2.448190e+03,4.216020e+03
2.458797e+03,4.179979e+03
2.469403e+03,4.137333e+03
2.480010e+03,4.144307e+03
2.490616e+03,4.079543e+03
2.501223e+03,4.065691e+03
2.511830e+03,4.034397e+03
2.522436e+03,4.020543e+03
2.533043e+03,4.005908e+03
2.543649e+03,3.976366e+03
2.554256e+03,3.936694e+03
2.564863e+03,3.903118e+03
2.575469e+03,3.910177e+03
2.586075e+03,3.887362e+03
2.596682e+03,3.834456e+03
2.607289e+03,3.802848e+03
2.617895e+03,3.803433e+03
2.628502e+03,3.735888e+03
2.639108e+03,3.750144e+03
2.649715e+03,3.726857e+03
2.660322e+03,3.718040e+03
2.670928e+03,3.694715e+03
2.681535e+03,3.687012e+03
2.692141e+03,3.632178e+03
2.702748e+03,3.628349e+03
2.713354e+03,3.583448e+03
2.723961e+03,3.574918e+03
2.734568e+03,3.563803e+03
2.745174e+03,3.530793e+03
2.755781e+03,3.481347e+03
2.766387e+03,3.491068e+03
2.776994e+03,3.485391e+03
2.787600e+03,3.446307e+03
2.798207e+03,3.412805e+03
2.808813e+03,3.405656e+03
2.819420e+03,3.391368e+03
2.830027e+03,3.422730e+03
2.840633e+03,3.352683e+03
2.851240e+03,3.361556e+03
2.861846e+03,3.320692e+03
2.872453e+03,3.317704e+03
2.883059e+03,3.310756e+03
2.893666e+03,3.317761e+03
2.904273e+03,3.282066e+03
2.914879e+03,3.243797e+03
2.925486e+03,3.235520e+03
2.936092e+03,3.250286e+03
2.946699e+03,3.186605e+03
2.957305e+03,3.227580e+03
2.967912e+03,3.197662e+03
2.978519e+03,3.147184e+03
2.989125e+03,3.119893e+03
2.999732e+03,3.080770e+03
3.010338e+03,3.084381e+03
3.020945e+03,3.117636e+03
3.031552e+03,3.055316e+03
3.042158e+03,3.039927e+03
3.052764e+03,3.049968e+03
3.063371e+03,2.972915e+03
3.073978e+03,3.003169e+03
3.084584e+03,2.960345e+03
3.095191e+03,2.974909e+03
3.105797e+03,2.995313e+03
3.116404e+03,3.000474e+03
3.127010e+03,2.957894e+03
3.137617e+03,2.983742e+03
3.148224e+03,2.932395e+03
3.158830e+03,2.925722e+03
3.169437e+03,2.926689e+03
3.180043e+03,2.843709e+03
3.190650e+03,2.960800e+03
3.200292e+03,3.034130e+03