File: RAMAN_data/06022023_r1/black fibre4.CSV
1.995979e+02,4.577417e+03
2.102045e+02,4.592538e+03
2.208110e+02,4.591501e+03
2.314176e+02,4.624298e+03
2.420242e+02,4.618808e+03
2.526307e+02,4.663404e+03
2.632373e+02,4.678005e+03
2.738439e+02,4.685352e+03
2.844504e+02,4.716735e+03
2.950570e+02,4.716471e+03
3.056636e+02,4.705940e+03
3.162701e+02,4.697930e+03
3.268767e+02,4.722580e+03
3.374833e+02,4.712001e+03
3.480898e+02,4.734516e+03
3.586964e+02,4.747639e+03
3.693030e+02,4.725078e+03
3.799095e+02,4.760035e+03
3.905161e+02,4.725820e+03
4.011227e+02,4.709464e+03
4.117292e+02,4.689793e+03
4.223358e+02,4.717253e+03
4.329424e+02,4.713585e+03
4.435490e+02,4.691119e+03
4.541555e+02,4.693125e+03
4.647621e+02,4.663468e+03
4.753687e+02,4.653850e+03
4.859752e+02,4.687281e+03
4.965818e+02,4.665897e+03
5.071884e+02,4.631699e+03
5.177949e+02,4.615500e+03
5.284015e+02,4.598345e+03
5.390081e+02,4.583354e+03
5.496146e+02,4.554250e+03
5.602212e+02,4.567195e+03
5.708278e+02,4.497377e+03
5.814343e+02,4.507318e+03
5.920409e+02,4.494430e+03
6.026475e+02,4.468299e+03
6.132540e+02,4.451804e+03
6.238606e+02,4.438015e+03
6.344672e+02,4.419158e+03
6.450737e+02,4.380631e+03
6.556803e+02,4.362226e+03
6.662869e+02,4.332070e+03
6.768934e+02,4.312577e+03
6.875000e+02,4.318407e+03
6.981066e+02,4.283017e+03
7.087131e+02,4.242563e+03
7.193197e+02,4.227117e+03
7.299263e+02,4.200301e+03
7.405328e+02,4.166592e+03
7.511394e+02,4.146839e+03
7.617460e+02,4.126344e+03
7.723525e+02,4.087542e+03
7.829591e+02,4.079138e+03
7.935657e+02,4.055365e+03
8.041722e+02,4.020905e+03
8.147788e+02,4.001969e+03
8.253854e+02,3.983531e+03
8.359919e+02,3.966624e+03
8.465985e+02,3.948570e+03
8.572051e+02,3.908278e+03
8.678116e+02,3.860117e+03
8.784182e+02,3.858931e+03
8.890248e+02,3.849363e+03
8.996313e+02,3.822716e+03
9.102379e+02,3.778441e+03
9.208445e+02,3.748065e+03
9.314510e+02,3.718802e+03
9.420576e+02,3.688472e+03
9.526642e+02,3.683226e+03
9.632708e+02,3.656834e+03
9.738773e+02,3.626647e+03
9.844839e+02,3.606638e+03
9.950905e+02,3.593042e+03
1.005697e+03,3.561221e+03
1.016304e+03,3.537186e+03
1.026910e+03,3.504419e+03
1.037517e+03,3.487010e+03
1.048123e+03,3.448899e+03
1.058730e+03,3.436240e+03
1.069336e+03,3.427933e+03
1.079943e+03,3.396056e+03
1.090550e+03,3.428101e+03
1.101156e+03,3.367030e+03
1.111763e+03,3.339602e+03
1.122369e+03,3.357556e+03
1.132976e+03,3.309701e+03
1.143582e+03,3.273177e+03
1.154189e+03,3.275742e+03
1.164796e+03,3.233083e+03
1.175402e+03,3.201345e+03
1.186009e+03,3.184847e+03
1.196615e+03,3.182181e+03
1.207222e+03,3.146952e+03
1.217828e+03,3.118896e+03
1.228435e+03,3.103499e+03
1.239042e+03,3.078253e+03
1.249648e+03,3.048975e+03
1.260255e+03,3.033935e+03
1.270861e+03,3.018403e+03
1.281468e+03,3.030087e+03
1.292074e+03,3.000433e+03
1.302681e+03,2.959302e+03
1.313287e+03,2.944052e+03
1.323894e+03,2.947444e+03
1.334501e+03,2.941949e+03
1.345107e+03,2.901576e+03
1.355714e+03,2.907289e+03
1.366320e+03,2.886741e+03
1.376927e+03,2.868085e+03
1.387533e+03,2.828540e+03
1.398140e+03,2.810817e+03
1.408747e+03,2.796568e+03
1.419353e+03,2.776427e+03
1.429960e+03,2.741589e+03
1.440566e+03,2.727976e+03
1.451173e+03,2.685346e+03
1.461779e+03,2.693474e+03
1.472386e+03,2.681099e+03
1.482993e+03,2.642086e+03
1.493599e+03,2.651036e+03
1.504206e+03,2.625384e+03
1.514812e+03,2.586878e+03
1.525419e+03,2.594774e+03
1.536025e+03,2.549664e+03
1.546632e+03,2.556020e+03
1.557239e+03,2.535394e+03
1.567845e+03,2.514538e+03
1.578452e+03,2.502889e+03
1.589058e+03,2.512399e+03
1.599665e+03,2.470819e+03
1.610271e+03,2.438791e+03
1.620878e+03,2.417723e+03
1.631484e+03,2.406450e+03
1.642091e+03,2.370000e+03
1.652698e+03,2.344965e+03
1.663304e+03,2.355286e+03
1.673911e+03,2.305538e+03
1.684517e+03,2.295028e+03
1.695124e+03,2.295560e+03
1.705730e+03,2.285537e+03
1.716337e+03,2.269183e+03
1.726944e+03,2.236937e+03
1.737550e+03,2.213727e+03
1.748157e+03,2.188450e+03
1.758763e+03,2.176772e+03
1.769370e+03,2.147292e+03
1.779976e+03,2.146329e+03
1.790583e+03,2.104431e+03
1.801190e+03,2.110688e+03
1.811796e+03,2.094590e+03
1.822403e+03,2.069487e+03
1.833009e+03,2.051401e+03
1.843616e+03,2.041643e+03
1.854222e+03,2.009279e+03
1.864829e+03,2.000765e+03
1.875436e+03,1.980307e+03
1.886042e+03,1.947545e+03
1.896649e+03,1.934300e+03
1.907255e+03,1.914229e+03
1.917862e+03,1.887288e+03
1.928468e+03,1.866552e+03
1.939075e+03,1.869918e+03
1.949682e+03,1.831585e+03
1.960288e+03,1.819476e+03
1.970895e+03,1.800705e+03
1.981501e+03,1.802446e+03
1.992108e+03,1.763369e+03
2.002714e+03,1.751010e+03
2.013321e+03,1.727423e+03
2.023927e+03,1.714821e+03
2.034534e+03,1.679521e+03
2.045141e+03,1.673975e+03
2.055747e+03,1.631430e+03
2.066354e+03,1.633581e+03
2.076960e+03,1.619679e+03
2.087567e+03,1.606605e+03
2.098173e+03,1.572926e+03
2.108780e+03,1.561201e+03
2.119387e+03,1.537894e+03
2.129993e+03,1.520901e+03
2.140600e+03,1.511066e+03
2.151206e+03,1.504980e+03
2.161813e+03,1.481772e+03
2.172419e+03,1.452697e+03
2.183026e+03,1.431070e+03
2.193633e+03,1.435608e+03
2.204239e+03,1.402992e+03
2.214846e+03,1.384639e+03
2.225452e+03,1.354159e+03
2.236059e+03,1.360957e+03
2.246666e+03,1.327904e+03
2.257272e+03,1.313685e+03
2.267879e+03,1.295715e+03
2.278485e+03,1.271596e+03
2.289092e+03,1.272328e+03
2.299698e+03,1.260647e+03
2.310305e+03,1.234898e+03
2.320911e+03,1.243263e+03
2.331518e+03,1.206620e+03
2.342125e+03,1.188540e+03
2.352731e+03,1.183242e+03
2.363338e+03,1.168204e+03
2.373944e+03,1.165177e+03
2.384551e+03,1.139409e+03
2.395157e+03,1.112398e+03
2.405764e+03,1.115743e+03
2.416370e+03,1.112934e+03
2.426977e+03,1.072502e+03
2.437584e+03,1.057441e+03
2.448190e+03,1.055653e+03
2.458797e+03,1.055950e+03
2.469403e+03,1.036815e+03
2.480010e+03,1.051542e+03
2.490616e+03,1.002482e+03
2.501223e+03,9.997493e+02
2.511830e+03,1.003123e+03
2.522436e+03,9.960247e+02
2.533043e+03,9.648477e+02
2.543649e+03,9.730511e+02
2.554256e+03,9.466240e+02
2.564863e+03,9.335428e+02
2.575469e+03,9.485413e+02
2.586075e+03,9.287513e+02
2.596682e+03,9.256969e+02
2.607289e+03,9.270284e+02
2.617895e+03,8.977014e+02
2.628502e+03,9.026807e+02
2.639108e+03,8.932582e+02
2.649715e+03,8.581582e+02
2.660322e+03,8.493489e+02
2.670928e+03,8.545396e+02
2.681535e+03,8.497030e+02
2.692141e+03,8.388672e+02
2.702748e+03,8.365778e+02
2.713354e+03,8.019475e+02
2.723961e+03,8.160334e+02
2.734568e+03,8.178127e+02
2.745174e+03,7.995994e+02
2.755781e+03,7.864736e+02
2.766387e+03,7.685477e+02
2.776994e+03,7.747014e+02
2.787600e+03,7.596367e+02
2.798207e+03,7.582908e+02
2.808813e+03,7.438778e+02
2.819420e+03,7.625594e+02
2.830027e+03,7.636563e+02
2.840633e+03,7.411804e+02
2.851240e+03,7.458567e+02
2.861846e+03,7.548973e+02
2.872453e+03,7.505673e+02
2.883059e+03,7.714822e+02
2.893666e+03,7.789758e+02
2.904273e+03,7.593473e+02
2.914879e+03,7.564382e+02
2.925486e+03,7.355016e+02
2.936092e+03,7.096565e+02
2.946699e+03,7.126662e+02
2.957305e+03,7.385026e+02
2.967912e+03,6.961916e+02
2.978519e+03,6.774285e+02
2.989125e+03,6.877012e+02
2.999732e+03,6.544935e+02
3.010338e+03,6.626694e+02
3.020945e+03,6.650334e+02
3.031552e+03,6.334775e+02
3.042158e+03,6.386363e+02
3.052764e+03,6.378146e+02
3.063371e+03,6.575261e+02
3.073978e+03,6.381872e+02
3.084584e+03,6.424926e+02
3.095191e+03,6.097281e+02
3.105797e+03,6.156465e+02
3.116404e+03,6.434110e+02
3.127010e+03,6.472159e+02
3.137617e+03,6.533486e+02
3.148224e+03,6.202209e+02
3.158830e+03,6.484042e+02
3.169437e+03,6.639230e+02
3.180043e+03,6.329445e+02
3.190650e+03,5.963418e+02
3.200292e+03,6.873684e+02