File: RAMAN_data/06022023_r1/black fibre13.CSV
1.995979e+02,4.479898e+03
2.102045e+02,4.501952e+03
2.208110e+02,4.536683e+03
2.314176e+02,4.555792e+03
2.420242e+02,4.565335e+03
2.526307e+02,4.609603e+03
2.632373e+02,4.654623e+03
2.738439e+02,4.660021e+03
2.844504e+02,4.687683e+03
2.950570e+02,4.695424e+03
3.056636e+02,4.722688e+03
3.162701e+02,4.745067e+03
3.268767e+02,4.769654e+03
3.374833e+02,4.756439e+03
3.480898e+02,4.757235e+03
3.586964e+02,4.796076e+03
3.693030e+02,4.808666e+03
3.799095e+02,4.842094e+03
3.905161e+02,4.828771e+03
4.011227e+02,4.836918e+03
4.117292e+02,4.808324e+03
4.223358e+02,4.832112e+03
4.329424e+02,4.841004e+03
4.435490e+02,4.849344e+03
4.541555e+02,4.869406e+03
4.647621e+02,4.853687e+03
4.753687e+02,4.870822e+03
4.859752e+02,4.938021e+03
4.965818e+02,4.908744e+03
5.071884e+02,4.876575e+03
5.177949e+02,4.858189e+03
5.284015e+02,4.856916e+03
5.390081e+02,4.839913e+03
5.496146e+02,4.833086e+03
5.602212e+02,4.839959e+03
5.708278e+02,4.826666e+03
5.814343e+02,4.825173e+03
5.920409e+02,4.833791e+03
6.026475e+02,4.813927e+03
6.132540e+02,4.812852e+03
6.238606e+02,4.807620e+03
6.344672e+02,4.783422e+03
6.450737e+02,4.789376e+03
6.556803e+02,4.778436e+03
6.662869e+02,4.748219e+03
6.768934e+02,4.734306e+03
6.875000e+02,4.721942e+03
6.981066e+02,4.734722e+03
7.087131e+02,4.687552e+03
7.193197e+02,4.693175e+03
7.299263e+02,4.668646e+03
7.405328e+02,4.654350e+03
7.511394e+02,4.626861e+03
7.617460e+02,4.622585e+03
7.723525e+02,4.592761e+03
7.829591e+02,4.569063e+03
7.935657e+02,4.576937e+03
8.041722e+02,4.549694e+03
8.147788e+02,4.542055e+03
8.253854e+02,4.514967e+03
8.359919e+02,4.498125e+03
8.465985e+02,4.470173e+03
8.572051e+02,4.455853e+03
8.678116e+02,4.439204e+03
8.784182e+02,4.447615e+03
8.890248e+02,4.422944e+03
8.996313e+02,4.387981e+03
9.102379e+02,4.349770e+03
9.208445e+02,4.336268e+03
9.314510e+02,4.302589e+03
9.420576e+02,4.276763e+03
9.526642e+02,4.270960e+03
9.632708e+02,4.259691e+03
9.738773e+02,4.226871e+03
9.844839e+02,4.214312e+03
9.950905e+02,4.202365e+03
1.005697e+03,4.167651e+03
1.016304e+03,4.129050e+03
1.026910e+03,4.112320e+03
1.037517e+03,4.107962e+03
1.048123e+03,4.088859e+03
1.058730e+03,4.060673e+03
1.069336e+03,4.037626e+03
1.079943e+03,4.031789e+03
1.090550e+03,4.050422e+03
1.101156e+03,3.985887e+03
1.111763e+03,3.991481e+03
1.122369e+03,4.011616e+03
1.132976e+03,3.986947e+03
1.143582e+03,3.969183e+03
1.154189e+03,3.959460e+03
1.164796e+03,3.875050e+03
1.175402e+03,3.867178e+03
1.186009e+03,3.854044e+03
1.196615e+03,3.826942e+03
1.207222e+03,3.796558e+03
1.217828e+03,3.792347e+03
1.228435e+03,3.759428e+03
1.239042e+03,3.729766e+03
1.249648e+03,3.702487e+03
1.260255e+03,3.673427e+03
1.270861e+03,3.692387e+03
1.281468e+03,3.694209e+03
1.292074e+03,3.664129e+03
1.302681e+03,3.621220e+03
1.313287e+03,3.583870e+03
1.323894e+03,3.582507e+03
1.334501e+03,3.597643e+03
1.345107e+03,3.578138e+03
1.355714e+03,3.542381e+03
1.366320e+03,3.509885e+03
1.376927e+03,3.501432e+03
1.387533e+03,3.457154e+03
1.398140e+03,3.421853e+03
1.408747e+03,3.399606e+03
1.419353e+03,3.385294e+03
1.429960e+03,3.362481e+03
1.440566e+03,3.327323e+03
1.451173e+03,3.298110e+03
1.461779e+03,3.290028e+03
1.472386e+03,3.259630e+03
1.482993e+03,3.252311e+03
1.493599e+03,3.248225e+03
1.504206e+03,3.229847e+03
1.514812e+03,3.181396e+03
1.525419e+03,3.187113e+03
1.536025e+03,3.131952e+03
1.546632e+03,3.114789e+03
1.557239e+03,3.131629e+03
1.567845e+03,3.144604e+03
1.578452e+03,3.124998e+03
1.589058e+03,3.111422e+03
1.599665e+03,3.057074e+03
1.610271e+03,3.038370e+03
1.620878e+03,3.006730e+03
1.631484e+03,2.979873e+03
1.642091e+03,2.967921e+03
1.652698e+03,2.936503e+03
1.663304e+03,2.924761e+03
1.673911e+03,2.898040e+03
1.684517e+03,2.870133e+03
1.695124e+03,2.884161e+03
1.705730e+03,2.849594e+03
1.716337e+03,2.821672e+03
1.726944e+03,2.803214e+03
1.737550e+03,2.775459e+03
1.748157e+03,2.749568e+03
1.758763e+03,2.739678e+03
1.769370e+03,2.723602e+03
1.779976e+03,2.687198e+03
1.790583e+03,2.683992e+03
1.801190e+03,2.672416e+03
1.811796e+03,2.629047e+03
1.822403e+03,2.619709e+03
1.833009e+03,2.609342e+03
1.843616e+03,2.600745e+03
1.854222e+03,2.556178e+03
1.864829e+03,2.538740e+03
1.875436e+03,2.509545e+03
1.886042e+03,2.472006e+03
1.896649e+03,2.464912e+03
1.907255e+03,2.466883e+03
1.917862e+03,2.434159e+03
1.928468e+03,2.407351e+03
1.939075e+03,2.400348e+03
1.949682e+03,2.378414e+03
1.960288e+03,2.346719e+03
1.970895e+03,2.336777e+03
1.981501e+03,2.312387e+03
1.992108e+03,2.280241e+03
2.002714e+03,2.272732e+03
2.013321e+03,2.245956e+03
2.023927e+03,2.214288e+03
2.034534e+03,2.184269e+03
2.045141e+03,2.172295e+03
2.055747e+03,2.153092e+03
2.066354e+03,2.124158e+03
2.076960e+03,2.124789e+03
2.087567e+03,2.075746e+03
2.098173e+03,2.071556e+03
2.108780e+03,2.064148e+03
2.119387e+03,2.038026e+03
2.129993e+03,1.990172e+03
2.140600e+03,1.997848e+03
2.151206e+03,1.973836e+03
2.161813e+03,1.947283e+03
2.172419e+03,1.926559e+03
2.183026e+03,1.897712e+03
2.193633e+03,1.893246e+03
2.204239e+03,1.874942e+03
2.214846e+03,1.867288e+03
2.225452e+03,1.830889e+03
2.236059e+03,1.799089e+03
2.246666e+03,1.790272e+03
2.257272e+03,1.762598e+03
2.267879e+03,1.754398e+03
2.278485e+03,1.728269e+03
2.289092e+03,1.714619e+03
2.299698e+03,1.685415e+03
2.310305e+03,1.671387e+03
2.320911e+03,1.650818e+03
2.331518e+03,1.631674e+03
2.342125e+03,1.621699e+03
2.352731e+03,1.589230e+03
2.363338e+03,1.574613e+03
2.373944e+03,1.547327e+03
2.384551e+03,1.551670e+03
2.395157e+03,1.540029e+03
2.405764e+03,1.502832e+03
2.416370e+03,1.491070e+03
2.426977e+03,1.489488e+03
2.437584e+03,1.466166e+03
2.448190e+03,1.435801e+03
2.458797e+03,1.432408e+03
2.469403e+03,1.420764e+03
2.480010e+03,1.395279e+03
2.490616e+03,1.371664e+03
2.501223e+03,1.370358e+03
2.511830e+03,1.373971e+03
2.522436e+03,1.347463e+03
2.533043e+03,1.346192e+03
2.543649e+03,1.332217e+03
2.554256e+03,1.305486e+03
2.564863e+03,1.314610e+03
2.575469e+03,1.277020e+03
2.586075e+03,1.284649e+03
2.596682e+03,1.259207e+03
2.607289e+03,1.222947e+03
2.617895e+03,1.232789e+03
2.628502e+03,1.221617e+03
2.639108e+03,1.197797e+03
2.649715e+03,1.196116e+03
2.660322e+03,1.181922e+03
2.670928e+03,1.167994e+03
2.681535e+03,1.152721e+03
2.692141e+03,1.162422e+03
2.702748e+03,1.132940e+03
2.713354e+03,1.116056e+03
2.723961e+03,1.118633e+03
2.734568e+03,1.113328e+03
2.745174e+03,1.102883e+03
2.755781e+03,1.042400e+03
2.766387e+03,1.086032e+03
2.776994e+03,1.069261e+03
2.787600e+03,1.054666e+03
2.798207e+03,1.029821e+03
2.808813e+03,1.030911e+03
2.819420e+03,1.023837e+03
2.830027e+03,1.029631e+03
2.840633e+03,1.019466e+03
2.851240e+03,1.008052e+03
2.861846e+03,1.009330e+03
2.872453e+03,1.001696e+03
2.883059e+03,1.009310e+03
2.893666e+03,1.028996e+03
2.904273e+03,1.005362e+03
2.914879e+03,1.001579e+03
2.925486e+03,9.927045e+02
2.936092e+03,9.767186e+02
2.946699e+03,9.762090e+02
2.957305e+03,9.936957e+02
2.967912e+03,9.555822e+02
2.978519e+03,9.315125e+02
2.989125e+03,9.163177e+02
2.999732e+03,8.966585e+02
3.010338e+03,9.312293e+02
3.020945e+03,8.890002e+02
3.031552e+03,8.738491e+02
3.042158e+03,8.839875e+02
3.052764e+03,8.729779e+02
3.063371e+03,8.881619e+02
3.073978e+03,8.890756e+02
3.084584e+03,8.513147e+02
3.095191e+03,8.738760e+02
3.105797e+03,8.277198e+02
3.116404e+03,9.028105e+02
3.127010e+03,8.480764e+02
3.137617e+03,8.685447e+02
3.148224e+03,8.588367e+02
3.158830e+03,8.285242e+02
3.169437e+03,8.566619e+02
3.180043e+03,8.574486e+02
3.190650e+03,8.462291e+02
3.200292e+03,9.063459e+02