File: RAMAN_data/06022023_r1/black fibre6.CSV
1.995979e+02,3.806534e+03
2.102045e+02,3.834120e+03
2.208110e+02,3.870364e+03
2.314176e+02,3.872775e+03
2.420242e+02,3.878218e+03
2.526307e+02,3.901491e+03
2.632373e+02,3.922023e+03
2.738439e+02,3.918258e+03
2.844504e+02,3.923608e+03
2.950570e+02,3.960185e+03
3.056636e+02,3.952994e+03
3.162701e+02,3.944871e+03
3.268767e+02,3.967291e+03
3.374833e+02,3.947240e+03
3.480898e+02,3.963701e+03
3.586964e+02,3.964843e+03
3.693030e+02,3.962419e+03
3.799095e+02,3.991645e+03
3.905161e+02,3.946282e+03
4.011227e+02,3.960058e+03
4.117292e+02,3.923394e+03
4.223358e+02,3.943831e+03
4.329424e+02,3.939171e+03
4.435490e+02,3.904688e+03
4.541555e+02,3.911258e+03
4.647621e+02,3.902466e+03
4.753687e+02,3.885201e+03
4.859752e+02,3.895855e+03
4.965818e+02,3.851562e+03
5.071884e+02,3.844409e+03
5.177949e+02,3.835425e+03
5.284015e+02,3.815282e+03
5.390081e+02,3.789367e+03
5.496146e+02,3.772292e+03
5.602212e+02,3.748044e+03
5.708278e+02,3.728651e+03
5.814343e+02,3.725425e+03
5.920409e+02,3.714114e+03
6.026475e+02,3.709057e+03
6.132540e+02,3.676114e+03
6.238606e+02,3.674101e+03
6.344672e+02,3.625680e+03
6.450737e+02,3.623448e+03
6.556803e+02,3.598682e+03
6.662869e+02,3.575637e+03
6.768934e+02,3.550494e+03
6.875000e+02,3.517865e+03
6.981066e+02,3.507121e+03
7.087131e+02,3.461392e+03
7.193197e+02,3.457063e+03
7.299263e+02,3.423762e+03
7.405328e+02,3.414265e+03
7.511394e+02,3.391127e+03
7.617460e+02,3.358200e+03
7.723525e+02,3.333730e+03
7.829591e+02,3.309297e+03
7.935657e+02,3.283887e+03
8.041722e+02,3.263010e+03
8.147788e+02,3.232333e+03
8.253854e+02,3.221285e+03
8.359919e+02,3.200972e+03
8.465985e+02,3.171940e+03
8.572051e+02,3.143073e+03
8.678116e+02,3.110539e+03
8.784182e+02,3.109734e+03
8.890248e+02,3.081932e+03
8.996313e+02,3.053536e+03
9.102379e+02,3.028501e+03
9.208445e+02,2.997210e+03
9.314510e+02,2.986083e+03
9.420576e+02,2.955739e+03
9.526642e+02,2.916003e+03
9.632708e+02,2.903097e+03
9.738773e+02,2.879929e+03
9.844839e+02,2.857837e+03
9.950905e+02,2.847793e+03
1.005697e+03,2.801977e+03
1.016304e+03,2.791585e+03
1.026910e+03,2.779519e+03
1.037517e+03,2.764429e+03
1.048123e+03,2.721545e+03
1.058730e+03,2.722157e+03
1.069336e+03,2.710146e+03
1.079943e+03,2.684121e+03
1.090550e+03,2.685244e+03
1.101156e+03,2.657801e+03
1.111763e+03,2.650751e+03
1.122369e+03,2.627011e+03
1.132976e+03,2.599380e+03
1.143582e+03,2.569603e+03
1.154189e+03,2.568325e+03
1.164796e+03,2.526996e+03
1.175402e+03,2.514761e+03
1.186009e+03,2.487293e+03
1.196615e+03,2.491481e+03
1.207222e+03,2.451317e+03
1.217828e+03,2.462800e+03
1.228435e+03,2.436474e+03
1.239042e+03,2.425347e+03
1.249648e+03,2.414509e+03
1.260255e+03,2.401411e+03
1.270861e+03,2.378689e+03
1.281468e+03,2.368222e+03
1.292074e+03,2.346066e+03
1.302681e+03,2.335311e+03
1.313287e+03,2.311697e+03
1.323894e+03,2.313728e+03
1.334501e+03,2.301845e+03
1.345107e+03,2.266713e+03
1.355714e+03,2.259931e+03
1.366320e+03,2.243946e+03
1.376927e+03,2.228837e+03
1.387533e+03,2.219806e+03
1.398140e+03,2.226095e+03
1.408747e+03,2.202912e+03
1.419353e+03,2.168775e+03
1.429960e+03,2.158229e+03
1.440566e+03,2.132534e+03
1.451173e+03,2.126708e+03
1.461779e+03,2.106810e+03
1.472386e+03,2.095138e+03
1.482993e+03,2.079619e+03
1.493599e+03,2.054470e+03
1.504206e+03,2.044881e+03
1.514812e+03,2.036906e+03
1.525419e+03,2.025807e+03
1.536025e+03,1.997661e+03
1.546632e+03,1.987865e+03
1.557239e+03,1.983872e+03
1.567845e+03,1.981958e+03
1.578452e+03,1.966635e+03
1.589058e+03,1.941621e+03
1.599665e+03,1.918604e+03
1.610271e+03,1.896012e+03
1.620878e+03,1.894406e+03
1.631484e+03,1.886325e+03
1.642091e+03,1.863912e+03
1.652698e+03,1.844244e+03
1.663304e+03,1.826412e+03
1.673911e+03,1.820049e+03
1.684517e+03,1.806067e+03
1.695124e+03,1.775202e+03
1.705730e+03,1.779478e+03
1.716337e+03,1.740408e+03
1.726944e+03,1.741930e+03
1.737550e+03,1.722916e+03
1.748157e+03,1.707649e+03
1.758763e+03,1.687993e+03
1.769370e+03,1.692088e+03
1.779976e+03,1.651890e+03
1.790583e+03,1.634172e+03
1.801190e+03,1.637701e+03
1.811796e+03,1.619408e+03
1.822403e+03,1.578422e+03
1.833009e+03,1.583555e+03
1.843616e+03,1.582759e+03
1.854222e+03,1.557953e+03
1.864829e+03,1.554976e+03
1.875436e+03,1.533770e+03
1.886042e+03,1.499863e+03
1.896649e+03,1.495681e+03
1.907255e+03,1.473027e+03
1.917862e+03,1.457295e+03
1.928468e+03,1.460412e+03
1.939075e+03,1.424546e+03
1.949682e+03,1.390906e+03
1.960288e+03,1.397151e+03
1.970895e+03,1.382315e+03
1.981501e+03,1.351674e+03
1.992108e+03,1.346034e+03
2.002714e+03,1.336272e+03
2.013321e+03,1.330109e+03
2.023927e+03,1.284676e+03
2.034534e+03,1.306199e+03
2.045141e+03,1.272768e+03
2.055747e+03,1.245754e+03
2.066354e+03,1.235295e+03
2.076960e+03,1.232572e+03
2.087567e+03,1.212427e+03
2.098173e+03,1.196882e+03
2.108780e+03,1.183606e+03
2.119387e+03,1.181304e+03
2.129993e+03,1.149348e+03
2.140600e+03,1.137478e+03
2.151206e+03,1.125491e+03
2.161813e+03,1.109269e+03
2.172419e+03,1.098102e+03
2.183026e+03,1.081376e+03
2.193633e+03,1.070162e+03
2.204239e+03,1.059240e+03
2.214846e+03,1.034801e+03
2.225452e+03,1.018092e+03
2.236059e+03,1.032900e+03
2.246666e+03,9.969601e+02
2.257272e+03,9.840725e+02
2.267879e+03,9.716992e+02
2.278485e+03,9.613195e+02
2.289092e+03,9.386281e+02
2.299698e+03,9.374793e+02
2.310305e+03,9.292811e+02
2.320911e+03,9.100933e+02
2.331518e+03,9.022180e+02
2.342125e+03,8.914222e+02
2.352731e+03,8.695873e+02
2.363338e+03,8.685841e+02
2.373944e+03,8.526417e+02
2.384551e+03,8.443849e+02
2.395157e+03,8.372331e+02
2.405764e+03,8.383718e+02
2.416370e+03,8.137900e+02
2.426977e+03,8.119463e+02
2.437584e+03,7.953124e+02
2.448190e+03,7.760476e+02
2.458797e+03,7.578482e+02
2.469403e+03,7.524417e+02
2.480010e+03,7.514275e+02
2.490616e+03,7.529870e+02
2.501223e+03,7.419547e+02
2.511830e+03,7.316254e+02
2.522436e+03,7.376599e+02
2.533043e+03,7.164569e+02
2.543649e+03,6.991286e+02
2.554256e+03,7.066228e+02
2.564863e+03,7.001718e+02
2.575469e+03,6.881204e+02
2.586075e+03,6.709753e+02
2.596682e+03,6.528848e+02
2.607289e+03,6.466233e+02
2.617895e+03,6.508354e+02
2.628502e+03,6.451190e+02
2.639108e+03,6.455510e+02
2.649715e+03,6.561415e+02
2.660322e+03,6.280635e+02
2.670928e+03,6.358002e+02
2.681535e+03,6.208652e+02
2.692141e+03,6.135369e+02
2.702748e+03,6.068497e+02
2.713354e+03,5.921052e+02
2.723961e+03,6.076418e+02
2.734568e+03,5.926278e+02
2.745174e+03,5.792937e+02
2.755781e+03,5.968945e+02
2.766387e+03,5.673548e+02
2.776994e+03,5.655214e+02
2.787600e+03,5.804868e+02
2.798207e+03,5.791539e+02
2.808813e+03,5.691035e+02
2.819420e+03,5.529088e+02
2.830027e+03,5.735711e+02
2.840633e+03,5.432456e+02
2.851240e+03,5.442862e+02
2.861846e+03,5.423179e+02
2.872453e+03,5.604630e+02
2.883059e+03,5.811409e+02
2.893666e+03,5.682877e+02
2.904273e+03,5.674381e+02
2.914879e+03,5.533364e+02
2.925486e+03,5.461398e+02
2.936092e+03,5.315856e+02
2.946699e+03,5.410170e+02
2.957305e+03,5.894180e+02
2.967912e+03,5.210865e+02
2.978519e+03,5.155646e+02
2.989125e+03,4.877938e+02
2.999732e+03,4.733929e+02
3.010338e+03,4.995001e+02
3.020945e+03,5.010206e+02
3.031552e+03,4.803622e+02
3.042158e+03,5.061333e+02
3.052764e+03,4.731995e+02
3.063371e+03,4.958020e+02
3.073978e+03,4.879027e+02
3.084584e+03,4.899409e+02
3.095191e+03,4.986012e+02
3.105797e+03,4.737229e+02
3.116404e+03,4.951432e+02
3.127010e+03,4.972831e+02
3.137617e+03,4.950528e+02
3.148224e+03,5.173404e+02
3.158830e+03,5.040532e+02
3.169437e+03,4.795255e+02
3.180043e+03,4.996666e+02
3.190650e+03,5.305414e+02
3.200292e+03,5.409940e+02