File: RAMAN_data/06022023_r1/black fibre5.CSV
1.995979e+02,3.770427e+03
2.102045e+02,3.798711e+03
2.208110e+02,3.819707e+03
2.314176e+02,3.832377e+03
2.420242e+02,3.835661e+03
2.526307e+02,3.874145e+03
2.632373e+02,3.880926e+03
2.738439e+02,3.891693e+03
2.844504e+02,3.908234e+03
2.950570e+02,3.907781e+03
3.056636e+02,3.908217e+03
3.162701e+02,3.904536e+03
3.268767e+02,3.913953e+03
3.374833e+02,3.920123e+03
3.480898e+02,3.945845e+03
3.586964e+02,3.944417e+03
3.693030e+02,3.917975e+03
3.799095e+02,3.948125e+03
3.905161e+02,3.920719e+03
4.011227e+02,3.931359e+03
4.117292e+02,3.912719e+03
4.223358e+02,3.901841e+03
4.329424e+02,3.914133e+03
4.435490e+02,3.914083e+03
4.541555e+02,3.873996e+03
4.647621e+02,3.849767e+03
4.753687e+02,3.853361e+03
4.859752e+02,3.846476e+03
4.965818e+02,3.848665e+03
5.071884e+02,3.829754e+03
5.177949e+02,3.836552e+03
5.284015e+02,3.811774e+03
5.390081e+02,3.769435e+03
5.496146e+02,3.773405e+03
5.602212e+02,3.758932e+03
5.708278e+02,3.727868e+03
5.814343e+02,3.722692e+03
5.920409e+02,3.707518e+03
6.026475e+02,3.666283e+03
6.132540e+02,3.658216e+03
6.238606e+02,3.638281e+03
6.344672e+02,3.624447e+03
6.450737e+02,3.593619e+03
6.556803e+02,3.588034e+03
6.662869e+02,3.579116e+03
6.768934e+02,3.549081e+03
6.875000e+02,3.528215e+03
6.981066e+02,3.511459e+03
7.087131e+02,3.464784e+03
7.193197e+02,3.450737e+03
7.299263e+02,3.415704e+03
7.405328e+02,3.408796e+03
7.511394e+02,3.373222e+03
7.617460e+02,3.367859e+03
7.723525e+02,3.331819e+03
7.829591e+02,3.317589e+03
7.935657e+02,3.308874e+03
8.041722e+02,3.264056e+03
8.147788e+02,3.256378e+03
8.253854e+02,3.218705e+03
8.359919e+02,3.208044e+03
8.465985e+02,3.166618e+03
8.572051e+02,3.162165e+03
8.678116e+02,3.131882e+03
8.784182e+02,3.117331e+03
8.890248e+02,3.124930e+03
8.996313e+02,3.067394e+03
9.102379e+02,3.042902e+03
9.208445e+02,3.005654e+03
9.314510e+02,2.986414e+03
9.420576e+02,2.973964e+03
9.526642e+02,2.940299e+03
9.632708e+02,2.929496e+03
9.738773e+02,2.904458e+03
9.844839e+02,2.878269e+03
9.950905e+02,2.877407e+03
1.005697e+03,2.839365e+03
1.016304e+03,2.808811e+03
1.026910e+03,2.796463e+03
1.037517e+03,2.781665e+03
1.048123e+03,2.754694e+03
1.058730e+03,2.746826e+03
1.069336e+03,2.726379e+03
1.079943e+03,2.702142e+03
1.090550e+03,2.729719e+03
1.101156e+03,2.676361e+03
1.111763e+03,2.662862e+03
1.122369e+03,2.648649e+03
1.132976e+03,2.620871e+03
1.143582e+03,2.608034e+03
1.154189e+03,2.593797e+03
1.164796e+03,2.562308e+03
1.175402e+03,2.527246e+03
1.186009e+03,2.502098e+03
1.196615e+03,2.510939e+03
1.207222e+03,2.470185e+03
1.217828e+03,2.474243e+03
1.228435e+03,2.457378e+03
1.239042e+03,2.449970e+03
1.249648e+03,2.432205e+03
1.260255e+03,2.420083e+03
1.270861e+03,2.407405e+03
1.281468e+03,2.382251e+03
1.292074e+03,2.377974e+03
1.302681e+03,2.352884e+03
1.313287e+03,2.336771e+03
1.323894e+03,2.337938e+03
1.334501e+03,2.332389e+03
1.345107e+03,2.298722e+03
1.355714e+03,2.271736e+03
1.366320e+03,2.288753e+03
1.376927e+03,2.256026e+03
1.387533e+03,2.238915e+03
1.398140e+03,2.238046e+03
1.408747e+03,2.217295e+03
1.419353e+03,2.191650e+03
1.429960e+03,2.176129e+03
1.440566e+03,2.147153e+03
1.451173e+03,2.140650e+03
1.461779e+03,2.132493e+03
1.472386e+03,2.112810e+03
1.482993e+03,2.093570e+03
1.493599e+03,2.080373e+03
1.504206e+03,2.067532e+03
1.514812e+03,2.041626e+03
1.525419e+03,2.036265e+03
1.536025e+03,2.024053e+03
1.546632e+03,2.002865e+03
1.557239e+03,1.989449e+03
1.567845e+03,2.005161e+03
1.578452e+03,1.973443e+03
1.589058e+03,1.961413e+03
1.599665e+03,1.941094e+03
1.610271e+03,1.930917e+03
1.620878e+03,1.914734e+03
1.631484e+03,1.908524e+03
1.642091e+03,1.893454e+03
1.652698e+03,1.864882e+03
1.663304e+03,1.860819e+03
1.673911e+03,1.837762e+03
1.684517e+03,1.808450e+03
1.695124e+03,1.806776e+03
1.705730e+03,1.804935e+03
1.716337e+03,1.768398e+03
1.726944e+03,1.751731e+03
1.737550e+03,1.747148e+03
1.748157e+03,1.730750e+03
1.758763e+03,1.720530e+03
1.769370e+03,1.719111e+03
1.779976e+03,1.680955e+03
1.790583e+03,1.673028e+03
1.801190e+03,1.663946e+03
1.811796e+03,1.637197e+03
1.822403e+03,1.614447e+03
1.833009e+03,1.616067e+03
1.843616e+03,1.609478e+03
1.854222e+03,1.578208e+03
1.864829e+03,1.565994e+03
1.875436e+03,1.568418e+03
1.886042e+03,1.527652e+03
1.896649e+03,1.521935e+03
1.907255e+03,1.524714e+03
1.917862e+03,1.484791e+03
1.928468e+03,1.479040e+03
1.939075e+03,1.459840e+03
1.949682e+03,1.427040e+03
1.960288e+03,1.444082e+03
1.970895e+03,1.435217e+03
1.981501e+03,1.406250e+03
1.992108e+03,1.388156e+03
2.002714e+03,1.380043e+03
2.013321e+03,1.370568e+03
2.023927e+03,1.332465e+03
2.034534e+03,1.323492e+03
2.045141e+03,1.309168e+03
2.055747e+03,1.301539e+03
2.066354e+03,1.277182e+03
2.076960e+03,1.263463e+03
2.087567e+03,1.246382e+03
2.098173e+03,1.265768e+03
2.108780e+03,1.239028e+03
2.119387e+03,1.193239e+03
2.129993e+03,1.190369e+03
2.140600e+03,1.172235e+03
2.151206e+03,1.168083e+03
2.161813e+03,1.154899e+03
2.172419e+03,1.125800e+03
2.183026e+03,1.112577e+03
2.193633e+03,1.102333e+03
2.204239e+03,1.090526e+03
2.214846e+03,1.071274e+03
2.225452e+03,1.051839e+03
2.236059e+03,1.057825e+03
2.246666e+03,1.034566e+03
2.257272e+03,1.031293e+03
2.267879e+03,1.002356e+03
2.278485e+03,1.012042e+03
2.289092e+03,9.723708e+02
2.299698e+03,9.745752e+02
2.310305e+03,9.687208e+02
2.320911e+03,9.477480e+02
2.331518e+03,9.426484e+02
2.342125e+03,9.269130e+02
2.352731e+03,9.089352e+02
2.363338e+03,9.154405e+02
2.373944e+03,8.990192e+02
2.384551e+03,8.708956e+02
2.395157e+03,8.609203e+02
2.405764e+03,8.616578e+02
2.416370e+03,8.420123e+02
2.426977e+03,8.356017e+02
2.437584e+03,8.228568e+02
2.448190e+03,8.121262e+02
2.458797e+03,8.055630e+02
2.469403e+03,8.081234e+02
2.480010e+03,7.925225e+02
2.490616e+03,7.836889e+02
2.501223e+03,7.764229e+02
2.511830e+03,7.736154e+02
2.522436e+03,7.505157e+02
2.533043e+03,7.458945e+02
2.543649e+03,7.386965e+02
2.554256e+03,7.591510e+02
2.564863e+03,7.258454e+02
2.575469e+03,7.160676e+02
2.586075e+03,6.997441e+02
2.596682e+03,7.111297e+02
2.607289e+03,6.919754e+02
2.617895e+03,6.936564e+02
2.628502e+03,6.980918e+02
2.639108e+03,6.760566e+02
2.649715e+03,6.541494e+02
2.660322e+03,6.731563e+02
2.670928e+03,6.698840e+02
2.681535e+03,6.362054e+02
2.692141e+03,6.262745e+02
2.702748e+03,6.350430e+02
2.713354e+03,6.397615e+02
2.723961e+03,6.276641e+02
2.734568e+03,6.262952e+02
2.745174e+03,6.245740e+02
2.755781e+03,6.194681e+02
2.766387e+03,6.213505e+02
2.776994e+03,5.970254e+02
2.787600e+03,6.067179e+02
2.798207e+03,5.738392e+02
2.808813e+03,5.802463e+02
2.819420e+03,5.795822e+02
2.830027e+03,6.066332e+02
2.840633e+03,5.755305e+02
2.851240e+03,5.973073e+02
2.861846e+03,5.814257e+02
2.872453e+03,5.852627e+02
2.883059e+03,5.980807e+02
2.893666e+03,6.156027e+02
2.904273e+03,5.894703e+02
2.914879e+03,5.781864e+02
2.925486e+03,5.661439e+02
2.936092e+03,5.644835e+02
2.946699e+03,5.703395e+02
2.957305e+03,6.213559e+02
2.967912e+03,5.467401e+02
2.978519e+03,5.130660e+02
2.989125e+03,5.432928e+02
2.999732e+03,5.192671e+02
3.010338e+03,5.464226e+02
3.020945e+03,5.251780e+02
3.031552e+03,5.046379e+02
3.042158e+03,5.615372e+02
3.052764e+03,5.430873e+02
3.063371e+03,5.135568e+02
3.073978e+03,5.005291e+02
3.084584e+03,5.115497e+02
3.095191e+03,5.250629e+02
3.105797e+03,4.937303e+02
3.116404e+03,5.172070e+02
3.127010e+03,5.252475e+02
3.137617e+03,5.448919e+02
3.148224e+03,5.242931e+02
3.158830e+03,4.984065e+02
3.169437e+03,4.902064e+02
3.180043e+03,5.035275e+02
3.190650e+03,5.092563e+02
3.200292e+03,5.335317e+02