File: RAMAN_data/06022023_r1/black fibre12.CSV
1.995979e+02,1.139708e+03
2.102045e+02,1.141451e+03
2.208110e+02,1.134059e+03
2.314176e+02,1.139076e+03
2.420242e+02,1.143213e+03
2.526307e+02,1.155268e+03
2.632373e+02,1.161225e+03
2.738439e+02,1.158376e+03
2.844504e+02,1.164049e+03
2.950570e+02,1.159100e+03
3.056636e+02,1.166195e+03
3.162701e+02,1.166624e+03
3.268767e+02,1.173580e+03
3.374833e+02,1.169054e+03
3.480898e+02,1.167854e+03
3.586964e+02,1.173494e+03
3.693030e+02,1.166188e+03
3.799095e+02,1.186227e+03
3.905161e+02,1.166256e+03
4.011227e+02,1.168383e+03
4.117292e+02,1.163590e+03
4.223358e+02,1.155438e+03
4.329424e+02,1.168475e+03
4.435490e+02,1.154931e+03
4.541555e+02,1.155325e+03
4.647621e+02,1.144326e+03
4.753687e+02,1.140227e+03
4.859752e+02,1.158784e+03
4.965818e+02,1.138419e+03
5.071884e+02,1.132940e+03
5.177949e+02,1.145403e+03
5.284015e+02,1.131936e+03
5.390081e+02,1.120712e+03
5.496146e+02,1.122737e+03
5.602212e+02,1.107301e+03
5.708278e+02,1.093215e+03
5.814343e+02,1.113969e+03
5.920409e+02,1.098698e+03
6.026475e+02,1.104565e+03
6.132540e+02,1.087300e+03
6.238606e+02,1.089913e+03
6.344672e+02,1.091171e+03
6.450737e+02,1.079432e+03
6.556803e+02,1.072289e+03
6.662869e+02,1.064436e+03
6.768934e+02,1.058979e+03
6.875000e+02,1.058401e+03
6.981066e+02,1.045262e+03
7.087131e+02,1.036425e+03
7.193197e+02,1.041500e+03
7.299263e+02,1.029810e+03
7.405328e+02,1.026946e+03
7.511394e+02,1.016447e+03
7.617460e+02,1.019277e+03
7.723525e+02,1.010857e+03
7.829591e+02,1.004725e+03
7.935657e+02,1.003593e+03
8.041722e+02,9.909142e+02
8.147788e+02,9.992789e+02
8.253854e+02,9.837569e+02
8.359919e+02,9.711185e+02
8.465985e+02,9.723785e+02
8.572051e+02,9.682100e+02
8.678116e+02,9.635305e+02
8.784182e+02,9.670569e+02
8.890248e+02,9.610466e+02
8.996313e+02,9.493596e+02
9.102379e+02,9.393459e+02
9.208445e+02,9.322631e+02
9.314510e+02,9.320772e+02
9.420576e+02,9.195450e+02
9.526642e+02,9.147166e+02
9.632708e+02,9.162296e+02
9.738773e+02,8.995199e+02
9.844839e+02,8.975251e+02
9.950905e+02,8.984135e+02
1.005697e+03,8.919241e+02
1.016304e+03,8.873887e+02
1.026910e+03,8.860914e+02
1.037517e+03,8.803605e+02
1.048123e+03,8.790656e+02
1.058730e+03,8.724040e+02
1.069336e+03,8.640660e+02
1.079943e+03,8.677024e+02
1.090550e+03,8.928177e+02
1.101156e+03,8.747728e+02
1.111763e+03,8.661096e+02
1.122369e+03,8.863840e+02
1.132976e+03,8.570155e+02
1.143582e+03,8.511770e+02
1.154189e+03,8.555529e+02
1.164796e+03,8.231718e+02
1.175402e+03,8.207175e+02
1.186009e+03,8.210741e+02
1.196615e+03,8.098763e+02
1.207222e+03,8.016432e+02
1.217828e+03,8.071259e+02
1.228435e+03,7.987599e+02
1.239042e+03,7.889059e+02
1.249648e+03,7.854957e+02
1.260255e+03,7.881705e+02
1.270861e+03,7.840778e+02
1.281468e+03,7.951418e+02
1.292074e+03,7.933372e+02
1.302681e+03,7.745164e+02
1.313287e+03,7.621628e+02
1.323894e+03,7.695559e+02
1.334501e+03,7.750725e+02
1.345107e+03,7.734758e+02
1.355714e+03,7.645654e+02
1.366320e+03,7.635949e+02
1.376927e+03,7.576086e+02
1.387533e+03,7.505598e+02
1.398140e+03,7.402377e+02
1.408747e+03,7.334453e+02
1.419353e+03,7.268835e+02
1.429960e+03,7.206591e+02
1.440566e+03,7.125803e+02
1.451173e+03,7.034642e+02
1.461779e+03,7.001443e+02
1.472386e+03,6.985730e+02
1.482993e+03,6.985690e+02
1.493599e+03,6.912463e+02
1.504206e+03,6.789482e+02
1.514812e+03,6.740865e+02
1.525419e+03,6.742687e+02
1.536025e+03,6.685793e+02
1.546632e+03,6.614299e+02
1.557239e+03,6.675070e+02
1.567845e+03,6.660696e+02
1.578452e+03,6.652197e+02
1.589058e+03,6.655280e+02
1.599665e+03,6.494528e+02
1.610271e+03,6.498555e+02
1.620878e+03,6.419682e+02
1.631484e+03,6.276697e+02
1.642091e+03,6.253503e+02
1.652698e+03,6.214246e+02
1.663304e+03,6.208627e+02
1.673911e+03,6.099211e+02
1.684517e+03,6.083828e+02
1.695124e+03,6.074012e+02
1.705730e+03,6.013239e+02
1.716337e+03,5.971552e+02
1.726944e+03,5.862921e+02
1.737550e+03,5.886075e+02
1.748157e+03,5.840742e+02
1.758763e+03,5.800198e+02
1.769370e+03,5.770549e+02
1.779976e+03,5.689969e+02
1.790583e+03,5.603111e+02
1.801190e+03,5.601951e+02
1.811796e+03,5.595181e+02
1.822403e+03,5.467060e+02
1.833009e+03,5.491065e+02
1.843616e+03,5.459319e+02
1.854222e+03,5.402198e+02
1.864829e+03,5.343580e+02
1.875436e+03,5.243066e+02
1.886042e+03,5.228967e+02
1.896649e+03,5.130469e+02
1.907255e+03,5.090832e+02
1.917862e+03,5.032191e+02
1.928468e+03,5.074307e+02
1.939075e+03,4.946283e+02
1.949682e+03,4.881122e+02
1.960288e+03,4.891161e+02
1.970895e+03,4.715068e+02
1.981501e+03,4.775700e+02
1.992108e+03,4.739886e+02
2.002714e+03,4.717900e+02
2.013321e+03,4.620910e+02
2.023927e+03,4.660671e+02
2.034534e+03,4.539576e+02
2.045141e+03,4.450677e+02
2.055747e+03,4.438689e+02
2.066354e+03,4.355356e+02
2.076960e+03,4.297875e+02
2.087567e+03,4.254802e+02
2.098173e+03,4.200351e+02
2.108780e+03,4.180321e+02
2.119387e+03,4.109144e+02
2.129993e+03,4.005411e+02
2.140600e+03,4.069156e+02
2.151206e+03,4.039434e+02
2.161813e+03,3.958489e+02
2.172419e+03,3.965065e+02
2.183026e+03,3.916057e+02
2.193633e+03,3.845397e+02
2.204239e+03,3.819672e+02
2.214846e+03,3.771437e+02
2.225452e+03,3.735772e+02
2.236059e+03,3.725908e+02
2.246666e+03,3.596667e+02
2.257272e+03,3.569151e+02
2.267879e+03,3.517281e+02
2.278485e+03,3.470816e+02
2.289092e+03,3.461459e+02
2.299698e+03,3.461849e+02
2.310305e+03,3.505640e+02
2.320911e+03,3.263086e+02
2.331518e+03,3.286170e+02
2.342125e+03,3.227978e+02
2.352731e+03,3.167381e+02
2.363338e+03,3.184894e+02
2.373944e+03,3.183117e+02
2.384551e+03,3.186083e+02
2.395157e+03,3.200132e+02
2.405764e+03,3.036214e+02
2.416370e+03,3.002866e+02
2.426977e+03,3.008600e+02
2.437584e+03,2.901285e+02
2.448190e+03,2.937592e+02
2.458797e+03,2.869406e+02
2.469403e+03,2.850508e+02
2.480010e+03,2.880232e+02
2.490616e+03,2.827153e+02
2.501223e+03,2.770885e+02
2.511830e+03,2.821804e+02
2.522436e+03,2.664915e+02
2.533043e+03,2.733371e+02
2.543649e+03,2.759794e+02
2.554256e+03,2.845960e+02
2.564863e+03,2.720895e+02
2.575469e+03,2.733410e+02
2.586075e+03,2.590763e+02
2.596682e+03,2.602395e+02
2.607289e+03,2.607956e+02
2.617895e+03,2.512785e+02
2.628502e+03,2.520857e+02
2.639108e+03,2.508238e+02
2.649715e+03,2.396723e+02
2.660322e+03,2.380048e+02
2.670928e+03,2.433469e+02
2.681535e+03,2.400735e+02
2.692141e+03,2.379334e+02
2.702748e+03,2.413349e+02
2.713354e+03,2.344437e+02
2.723961e+03,2.410634e+02
2.734568e+03,2.450669e+02
2.745174e+03,2.264597e+02
2.755781e+03,2.276015e+02
2.766387e+03,2.262390e+02
2.776994e+03,2.274767e+02
2.787600e+03,2.251958e+02
2.798207e+03,2.281562e+02
2.808813e+03,2.305243e+02
2.819420e+03,2.246528e+02
2.830027e+03,2.335698e+02
2.840633e+03,2.149705e+02
2.851240e+03,2.339569e+02
2.861846e+03,2.456423e+02
2.872453e+03,2.480822e+02
2.883059e+03,2.545533e+02
2.893666e+03,2.521782e+02
2.904273e+03,2.547689e+02
2.914879e+03,2.531709e+02
2.925486e+03,2.506204e+02
2.936092e+03,2.348591e+02
2.946699e+03,2.368656e+02
2.957305e+03,2.581631e+02
2.967912e+03,2.171711e+02
2.978519e+03,2.263068e+02
2.989125e+03,2.024726e+02
2.999732e+03,2.111739e+02
3.010338e+03,2.079449e+02
3.020945e+03,1.983025e+02
3.031552e+03,1.860437e+02
3.042158e+03,2.196123e+02
3.052764e+03,2.113556e+02
3.063371e+03,2.094775e+02
3.073978e+03,1.879753e+02
3.084584e+03,2.021663e+02
3.095191e+03,2.040290e+02
3.105797e+03,1.949858e+02
3.116404e+03,2.279697e+02
3.127010e+03,2.043819e+02
3.137617e+03,2.360047e+02
3.148224e+03,1.974147e+02
3.158830e+03,1.965488e+02
3.169437e+03,2.262834e+02
3.180043e+03,1.958637e+02
3.190650e+03,2.095320e+02
3.200292e+03,2.573416e+02