File: RAMAN_data/06022023_r1/black fibre1.CSV
1.995979e+02,2.088856e+03
2.102045e+02,2.111344e+03
2.208110e+02,2.110485e+03
2.314176e+02,2.109145e+03
2.420242e+02,2.115939e+03
2.526307e+02,2.138732e+03
2.632373e+02,2.131406e+03
2.738439e+02,2.153927e+03
2.844504e+02,2.158185e+03
2.950570e+02,2.149825e+03
3.056636e+02,2.160744e+03
3.162701e+02,2.161869e+03
3.268767e+02,2.167911e+03
3.374833e+02,2.170870e+03
3.480898e+02,2.178283e+03
3.586964e+02,2.182428e+03
3.693030e+02,2.185860e+03
3.799095e+02,2.198216e+03
3.905161e+02,2.176001e+03
4.011227e+02,2.161326e+03
4.117292e+02,2.161991e+03
4.223358e+02,2.157314e+03
4.329424e+02,2.174913e+03
4.435490e+02,2.175862e+03
4.541555e+02,2.168548e+03
4.647621e+02,2.137963e+03
4.753687e+02,2.138115e+03
4.859752e+02,2.167810e+03
4.965818e+02,2.144493e+03
5.071884e+02,2.136587e+03
5.177949e+02,2.136822e+03
5.284015e+02,2.119315e+03
5.390081e+02,2.102394e+03
5.496146e+02,2.118821e+03
5.602212e+02,2.110903e+03
5.708278e+02,2.083747e+03
5.814343e+02,2.090205e+03
5.920409e+02,2.093428e+03
6.026475e+02,2.086950e+03
6.132540e+02,2.072791e+03
6.238606e+02,2.063776e+03
6.344672e+02,2.061302e+03
6.450737e+02,2.045789e+03
6.556803e+02,2.042205e+03
6.662869e+02,2.038302e+03
6.768934e+02,2.032645e+03
6.875000e+02,2.007449e+03
6.981066e+02,2.015492e+03
7.087131e+02,1.987362e+03
7.193197e+02,1.986349e+03
7.299263e+02,1.982531e+03
7.405328e+02,1.969708e+03
7.511394e+02,1.952336e+03
7.617460e+02,1.949411e+03
7.723525e+02,1.934327e+03
7.829591e+02,1.920510e+03
7.935657e+02,1.932432e+03
8.041722e+02,1.924206e+03
8.147788e+02,1.922123e+03
8.253854e+02,1.900141e+03
8.359919e+02,1.876427e+03
8.465985e+02,1.877275e+03
8.572051e+02,1.869106e+03
8.678116e+02,1.852122e+03
8.784182e+02,1.857518e+03
8.890248e+02,1.858043e+03
8.996313e+02,1.826014e+03
9.102379e+02,1.827450e+03
9.208445e+02,1.808940e+03
9.314510e+02,1.799876e+03
9.420576e+02,1.780226e+03
9.526642e+02,1.780239e+03
9.632708e+02,1.775482e+03
9.738773e+02,1.748952e+03
9.844839e+02,1.739159e+03
9.950905e+02,1.746236e+03
1.005697e+03,1.729641e+03
1.016304e+03,1.696118e+03
1.026910e+03,1.710222e+03
1.037517e+03,1.710825e+03
1.048123e+03,1.695417e+03
1.058730e+03,1.679215e+03
1.069336e+03,1.684170e+03
1.079943e+03,1.687803e+03
1.090550e+03,1.713722e+03
1.101156e+03,1.672821e+03
1.111763e+03,1.671510e+03
1.122369e+03,1.683571e+03
1.132976e+03,1.658324e+03
1.143582e+03,1.648974e+03
1.154189e+03,1.643708e+03
1.164796e+03,1.601349e+03
1.175402e+03,1.608813e+03
1.186009e+03,1.583196e+03
1.196615e+03,1.565594e+03
1.207222e+03,1.565913e+03
1.217828e+03,1.566134e+03
1.228435e+03,1.552902e+03
1.239042e+03,1.537621e+03
1.249648e+03,1.528262e+03
1.260255e+03,1.518047e+03
1.270861e+03,1.512220e+03
1.281468e+03,1.528978e+03
1.292074e+03,1.519359e+03
1.302681e+03,1.496142e+03
1.313287e+03,1.478196e+03
1.323894e+03,1.493962e+03
1.334501e+03,1.495060e+03
1.345107e+03,1.481684e+03
1.355714e+03,1.476633e+03
1.366320e+03,1.467317e+03
1.376927e+03,1.449385e+03
1.387533e+03,1.416502e+03
1.398140e+03,1.405030e+03
1.408747e+03,1.406425e+03
1.419353e+03,1.394049e+03
1.429960e+03,1.381509e+03
1.440566e+03,1.362473e+03
1.451173e+03,1.369373e+03
1.461779e+03,1.346380e+03
1.472386e+03,1.350526e+03
1.482993e+03,1.344951e+03
1.493599e+03,1.329938e+03
1.504206e+03,1.319843e+03
1.514812e+03,1.302321e+03
1.525419e+03,1.288961e+03
1.536025e+03,1.301279e+03
1.546632e+03,1.283685e+03
1.557239e+03,1.285422e+03
1.567845e+03,1.294272e+03
1.578452e+03,1.284353e+03
1.589058e+03,1.283838e+03
1.599665e+03,1.254528e+03
1.610271e+03,1.251478e+03
1.620878e+03,1.234617e+03
1.631484e+03,1.224963e+03
1.642091e+03,1.205287e+03
1.652698e+03,1.211319e+03
1.663304e+03,1.201025e+03
1.673911e+03,1.192648e+03
1.684517e+03,1.176136e+03
1.695124e+03,1.168351e+03
1.705730e+03,1.172949e+03
1.716337e+03,1.163829e+03
1.726944e+03,1.137719e+03
1.737550e+03,1.136702e+03
1.748157e+03,1.122988e+03
1.758763e+03,1.116370e+03
1.769370e+03,1.112127e+03
1.779976e+03,1.093562e+03
1.790583e+03,1.088758e+03
1.801190e+03,1.090254e+03
1.811796e+03,1.073114e+03
1.822403e+03,1.053933e+03
1.833009e+03,1.054070e+03
1.843616e+03,1.058381e+03
1.854222e+03,1.031262e+03
1.864829e+03,1.028037e+03
1.875436e+03,1.021950e+03
1.886042e+03,1.017439e+03
1.896649e+03,1.011753e+03
1.907255e+03,9.974192e+02
1.917862e+03,9.767059e+02
1.928468e+03,9.766387e+02
1.939075e+03,9.727842e+02
1.949682e+03,9.540955e+02
1.960288e+03,9.484911e+02
1.970895e+03,9.311025e+02
1.981501e+03,9.410540e+02
1.992108e+03,9.152480e+02
2.002714e+03,9.232616e+02
2.013321e+03,8.987708e+02
2.023927e+03,9.027620e+02
2.034534e+03,8.756513e+02
2.045141e+03,8.710340e+02
2.055747e+03,8.653030e+02
2.066354e+03,8.621130e+02
2.076960e+03,8.570089e+02
2.087567e+03,8.390300e+02
2.098173e+03,8.309766e+02
2.108780e+03,8.309669e+02
2.119387e+03,8.165168e+02
2.129993e+03,8.101418e+02
2.140600e+03,8.043365e+02
2.151206e+03,7.957920e+02
2.161813e+03,7.813708e+02
2.172419e+03,7.805019e+02
2.183026e+03,7.739252e+02
2.193633e+03,7.449649e+02
2.204239e+03,7.482966e+02
2.214846e+03,7.360161e+02
2.225452e+03,7.172223e+02
2.236059e+03,7.269542e+02
2.246666e+03,7.154316e+02
2.257272e+03,7.065170e+02
2.267879e+03,6.957850e+02
2.278485e+03,6.936622e+02
2.289092e+03,6.877347e+02
2.299698e+03,6.823694e+02
2.310305e+03,6.735310e+02
2.320911e+03,6.607104e+02
2.331518e+03,6.567587e+02
2.342125e+03,6.428133e+02
2.352731e+03,6.293337e+02
2.363338e+03,6.338078e+02
2.373944e+03,6.274702e+02
2.384551e+03,6.138452e+02
2.395157e+03,6.137548e+02
2.405764e+03,6.106622e+02
2.416370e+03,5.990393e+02
2.426977e+03,5.991765e+02
2.437584e+03,5.830389e+02
2.448190e+03,5.875156e+02
2.458797e+03,5.811097e+02
2.469403e+03,5.670862e+02
2.480010e+03,5.718358e+02
2.490616e+03,5.558815e+02
2.501223e+03,5.663107e+02
2.511830e+03,5.537213e+02
2.522436e+03,5.249001e+02
2.533043e+03,5.413932e+02
2.543649e+03,5.475794e+02
2.554256e+03,5.389114e+02
2.564863e+03,5.243524e+02
2.575469e+03,5.305939e+02
2.586075e+03,5.236257e+02
2.596682e+03,5.178411e+02
2.607289e+03,5.034184e+02
2.617895e+03,5.041374e+02
2.628502e+03,5.108864e+02
2.639108e+03,4.898017e+02
2.649715e+03,4.856349e+02
2.660322e+03,4.751436e+02
2.670928e+03,4.684005e+02
2.681535e+03,4.763823e+02
2.692141e+03,4.608618e+02
2.702748e+03,4.621710e+02
2.713354e+03,4.659237e+02
2.723961e+03,4.725652e+02
2.734568e+03,4.642833e+02
2.745174e+03,4.587548e+02
2.755781e+03,4.517121e+02
2.766387e+03,4.516832e+02
2.776994e+03,4.533402e+02
2.787600e+03,4.374123e+02
2.798207e+03,4.565742e+02
2.808813e+03,4.342836e+02
2.819420e+03,4.348545e+02
2.830027e+03,4.427510e+02
2.840633e+03,4.196607e+02
2.851240e+03,4.392638e+02
2.861846e+03,4.556600e+02
2.872453e+03,4.442118e+02
2.883059e+03,4.518261e+02
2.893666e+03,4.683981e+02
2.904273e+03,4.659297e+02
2.914879e+03,4.352415e+02
2.925486e+03,4.340161e+02
2.936092e+03,4.120670e+02
2.946699e+03,4.216790e+02
2.957305e+03,4.610905e+02
2.967912e+03,4.073856e+02
2.978519e+03,3.964650e+02
2.989125e+03,3.819034e+02
2.999732e+03,3.866767e+02
3.010338e+03,3.972378e+02
3.020945e+03,3.840368e+02
3.031552e+03,3.800761e+02
3.042158e+03,3.826003e+02
3.052764e+03,3.718971e+02
3.063371e+03,3.806290e+02
3.073978e+03,3.748442e+02
3.084584e+03,3.667182e+02
3.095191e+03,3.867296e+02
3.105797e+03,3.567760e+02
3.116404e+03,3.909619e+02
3.127010e+03,3.727786e+02
3.137617e+03,3.895102e+02
3.148224e+03,3.810780e+02
3.158830e+03,3.810394e+02
3.169437e+03,3.608541e+02
3.180043e+03,3.749173e+02
3.190650e+03,4.114696e+02
3.200292e+03,4.633672e+02