File: RAMAN_data/06022023_r1/black fibre2.CSV
1.995979e+02,5.611044e+03
2.102045e+02,5.625142e+03
2.208110e+02,5.639582e+03
2.314176e+02,5.650190e+03
2.420242e+02,5.674829e+03
2.526307e+02,5.701492e+03
2.632373e+02,5.735711e+03
2.738439e+02,5.731149e+03
2.844504e+02,5.747468e+03
2.950570e+02,5.750835e+03
3.056636e+02,5.771999e+03
3.162701e+02,5.765070e+03
3.268767e+02,5.767832e+03
3.374833e+02,5.764658e+03
3.480898e+02,5.771859e+03
3.586964e+02,5.781140e+03
3.693030e+02,5.764881e+03
3.799095e+02,5.808609e+03
3.905161e+02,5.777612e+03
4.011227e+02,5.779193e+03
4.117292e+02,5.751287e+03
4.223358e+02,5.733768e+03
4.329424e+02,5.749245e+03
4.435490e+02,5.735851e+03
4.541555e+02,5.742291e+03
4.647621e+02,5.689168e+03
4.753687e+02,5.693906e+03
4.859752e+02,5.695946e+03
4.965818e+02,5.665877e+03
5.071884e+02,5.653712e+03
5.177949e+02,5.647541e+03
5.284015e+02,5.604476e+03
5.390081e+02,5.570800e+03
5.496146e+02,5.549347e+03
5.602212e+02,5.542870e+03
5.708278e+02,5.514256e+03
5.814343e+02,5.511588e+03
5.920409e+02,5.472811e+03
6.026475e+02,5.458619e+03
6.132540e+02,5.448857e+03
6.238606e+02,5.436731e+03
6.344672e+02,5.397780e+03
6.450737e+02,5.350319e+03
6.556803e+02,5.333486e+03
6.662869e+02,5.293625e+03
6.768934e+02,5.290447e+03
6.875000e+02,5.242581e+03
6.981066e+02,5.224222e+03
7.087131e+02,5.185018e+03
7.193197e+02,5.165812e+03
7.299263e+02,5.149447e+03
7.405328e+02,5.106075e+03
7.511394e+02,5.071367e+03
7.617460e+02,5.065485e+03
7.723525e+02,4.987180e+03
7.829591e+02,4.991851e+03
7.935657e+02,4.958023e+03
8.041722e+02,4.893370e+03
8.147788e+02,4.874060e+03
8.253854e+02,4.874639e+03
8.359919e+02,4.827954e+03
8.465985e+02,4.784990e+03
8.572051e+02,4.794628e+03
8.678116e+02,4.722480e+03
8.784182e+02,4.694201e+03
8.890248e+02,4.663834e+03
8.996313e+02,4.655481e+03
9.102379e+02,4.605245e+03
9.208445e+02,4.554116e+03
9.314510e+02,4.545658e+03
9.420576e+02,4.500110e+03
9.526642e+02,4.483705e+03
9.632708e+02,4.446053e+03
9.738773e+02,4.405490e+03
9.844839e+02,4.361970e+03
9.950905e+02,4.354863e+03
1.005697e+03,4.326971e+03
1.016304e+03,4.268995e+03
1.026910e+03,4.256618e+03
1.037517e+03,4.236109e+03
1.048123e+03,4.183240e+03
1.058730e+03,4.181132e+03
1.069336e+03,4.152825e+03
1.079943e+03,4.120090e+03
1.090550e+03,4.109271e+03
1.101156e+03,4.062104e+03
1.111763e+03,4.073142e+03
1.122369e+03,4.049606e+03
1.132976e+03,4.017098e+03
1.143582e+03,3.978009e+03
1.154189e+03,3.966225e+03
1.164796e+03,3.901992e+03
1.175402e+03,3.870181e+03
1.186009e+03,3.858159e+03
1.196615e+03,3.825007e+03
1.207222e+03,3.792996e+03
1.217828e+03,3.749621e+03
1.228435e+03,3.734820e+03
1.239042e+03,3.730314e+03
1.249648e+03,3.691662e+03
1.260255e+03,3.657394e+03
1.270861e+03,3.651508e+03
1.281468e+03,3.638931e+03
1.292074e+03,3.608591e+03
1.302681e+03,3.566978e+03
1.313287e+03,3.539322e+03
1.323894e+03,3.536760e+03
1.334501e+03,3.511270e+03
1.345107e+03,3.498503e+03
1.355714e+03,3.446342e+03
1.366320e+03,3.443966e+03
1.376927e+03,3.406596e+03
1.387533e+03,3.394873e+03
1.398140e+03,3.369405e+03
1.408747e+03,3.325306e+03
1.419353e+03,3.299895e+03
1.429960e+03,3.285103e+03
1.440566e+03,3.242594e+03
1.451173e+03,3.241777e+03
1.461779e+03,3.218226e+03
1.472386e+03,3.178458e+03
1.482993e+03,3.159661e+03
1.493599e+03,3.146799e+03
1.504206e+03,3.120246e+03
1.514812e+03,3.093012e+03
1.525419e+03,3.078138e+03
1.536025e+03,3.048293e+03
1.546632e+03,3.025671e+03
1.557239e+03,3.027981e+03
1.567845e+03,3.004620e+03
1.578452e+03,2.986979e+03
1.589058e+03,2.958320e+03
1.599665e+03,2.928983e+03
1.610271e+03,2.891794e+03
1.620878e+03,2.884794e+03
1.631484e+03,2.865129e+03
1.642091e+03,2.840150e+03
1.652698e+03,2.818730e+03
1.663304e+03,2.790133e+03
1.673911e+03,2.778465e+03
1.684517e+03,2.753286e+03
1.695124e+03,2.724193e+03
1.705730e+03,2.729808e+03
1.716337e+03,2.686519e+03
1.726944e+03,2.667357e+03
1.737550e+03,2.650131e+03
1.748157e+03,2.615678e+03
1.758763e+03,2.595845e+03
1.769370e+03,2.569827e+03
1.779976e+03,2.552968e+03
1.790583e+03,2.525868e+03
1.801190e+03,2.525247e+03
1.811796e+03,2.485821e+03
1.822403e+03,2.461839e+03
1.833009e+03,2.452200e+03
1.843616e+03,2.440298e+03
1.854222e+03,2.393498e+03
1.864829e+03,2.397402e+03
1.875436e+03,2.367852e+03
1.886042e+03,2.340424e+03
1.896649e+03,2.301281e+03
1.907255e+03,2.276075e+03
1.917862e+03,2.247709e+03
1.928468e+03,2.232204e+03
1.939075e+03,2.224720e+03
1.949682e+03,2.202479e+03
1.960288e+03,2.174011e+03
1.970895e+03,2.157078e+03
1.981501e+03,2.136009e+03
1.992108e+03,2.100139e+03
2.002714e+03,2.089218e+03
2.013321e+03,2.079545e+03
2.023927e+03,2.038928e+03
2.034534e+03,2.033258e+03
2.045141e+03,1.994464e+03
2.055747e+03,1.979493e+03
2.066354e+03,1.957414e+03
2.076960e+03,1.942412e+03
2.087567e+03,1.908025e+03
2.098173e+03,1.912748e+03
2.108780e+03,1.886834e+03
2.119387e+03,1.859459e+03
2.129993e+03,1.852762e+03
2.140600e+03,1.824584e+03
2.151206e+03,1.782939e+03
2.161813e+03,1.775500e+03
2.172419e+03,1.771288e+03
2.183026e+03,1.727400e+03
2.193633e+03,1.693084e+03
2.204239e+03,1.696267e+03
2.214846e+03,1.680540e+03
2.225452e+03,1.633322e+03
2.236059e+03,1.631125e+03
2.246666e+03,1.600512e+03
2.257272e+03,1.599593e+03
2.267879e+03,1.563423e+03
2.278485e+03,1.540270e+03
2.289092e+03,1.515395e+03
2.299698e+03,1.515956e+03
2.310305e+03,1.507465e+03
2.320911e+03,1.477065e+03
2.331518e+03,1.460635e+03
2.342125e+03,1.439410e+03
2.352731e+03,1.416406e+03
2.363338e+03,1.400886e+03
2.373944e+03,1.379046e+03
2.384551e+03,1.381916e+03
2.395157e+03,1.355230e+03
2.405764e+03,1.336184e+03
2.416370e+03,1.328618e+03
2.426977e+03,1.309427e+03
2.437584e+03,1.278733e+03
2.448190e+03,1.272975e+03
2.458797e+03,1.271337e+03
2.469403e+03,1.253728e+03
2.480010e+03,1.246543e+03
2.490616e+03,1.205016e+03
2.501223e+03,1.204345e+03
2.511830e+03,1.193208e+03
2.522436e+03,1.173299e+03
2.533043e+03,1.181147e+03
2.543649e+03,1.160394e+03
2.554256e+03,1.145481e+03
2.564863e+03,1.132269e+03
2.575469e+03,1.125628e+03
2.586075e+03,1.112512e+03
2.596682e+03,1.080376e+03
2.607289e+03,1.072115e+03
2.617895e+03,1.072401e+03
2.628502e+03,1.067438e+03
2.639108e+03,1.067156e+03
2.649715e+03,1.034277e+03
2.660322e+03,1.024131e+03
2.670928e+03,1.030308e+03
2.681535e+03,1.008661e+03
2.692141e+03,1.001662e+03
2.702748e+03,9.993866e+02
2.713354e+03,9.953502e+02
2.723961e+03,9.714842e+02
2.734568e+03,9.697500e+02
2.745174e+03,9.629106e+02
2.755781e+03,9.637982e+02
2.766387e+03,9.449648e+02
2.776994e+03,9.371329e+02
2.787600e+03,9.119892e+02
2.798207e+03,9.219561e+02
2.808813e+03,9.021095e+02
2.819420e+03,8.992625e+02
2.830027e+03,9.180347e+02
2.840633e+03,8.900748e+02
2.851240e+03,8.974397e+02
2.861846e+03,8.989313e+02
2.872453e+03,9.074033e+02
2.883059e+03,8.864137e+02
2.893666e+03,8.939451e+02
2.904273e+03,8.771631e+02
2.914879e+03,8.575211e+02
2.925486e+03,8.569216e+02
2.936092e+03,8.650251e+02
2.946699e+03,8.442369e+02
2.957305e+03,8.693655e+02
2.967912e+03,8.247942e+02
2.978519e+03,8.088307e+02
2.989125e+03,7.972578e+02
2.999732e+03,7.800426e+02
3.010338e+03,8.163906e+02
3.020945e+03,7.728676e+02
3.031552e+03,7.671890e+02
3.042158e+03,7.995852e+02
3.052764e+03,7.801388e+02
3.063371e+03,7.846709e+02
3.073978e+03,7.616989e+02
3.084584e+03,7.519720e+02
3.095191e+03,7.664691e+02
3.105797e+03,7.544614e+02
3.116404e+03,7.615465e+02
3.127010e+03,7.637567e+02
3.137617e+03,8.014982e+02
3.148224e+03,7.635000e+02
3.158830e+03,7.938948e+02
3.169437e+03,7.710255e+02
3.180043e+03,7.620388e+02
3.190650e+03,7.860419e+02
3.200292e+03,8.504001e+02