File: RAMAN_data/06022023_r1/blue frag2.CSV
1.995979e+02,2.871514e+03
2.102045e+02,2.860983e+03
2.208110e+02,2.869451e+03
2.314176e+02,2.910699e+03
2.420242e+02,2.865487e+03
2.526307e+02,2.928725e+03
2.632373e+02,2.921820e+03
2.738439e+02,2.893488e+03
2.844504e+02,2.912129e+03
2.950570e+02,2.886351e+03
3.056636e+02,2.875906e+03
3.162701e+02,2.881362e+03
3.268767e+02,2.901120e+03
3.374833e+02,2.876492e+03
3.480898e+02,2.876318e+03
3.586964e+02,2.870087e+03
3.693030e+02,2.890131e+03
3.799095e+02,2.899528e+03
3.905161e+02,2.871812e+03
4.011227e+02,2.852319e+03
4.117292e+02,2.847705e+03
4.223358e+02,2.841878e+03
4.329424e+02,2.843133e+03
4.435490e+02,2.843142e+03
4.541555e+02,2.827837e+03
4.647621e+02,2.809684e+03
4.753687e+02,2.842508e+03
4.859752e+02,2.834460e+03
4.965818e+02,2.808814e+03
5.071884e+02,2.783032e+03
5.177949e+02,2.769865e+03
5.284015e+02,2.753189e+03
5.390081e+02,2.722446e+03
5.496146e+02,2.746416e+03
5.602212e+02,2.714762e+03
5.708278e+02,2.701411e+03
5.814343e+02,2.710279e+03
5.920409e+02,2.729770e+03
6.026475e+02,2.673527e+03
6.132540e+02,2.657158e+03
6.238606e+02,2.666153e+03
6.344672e+02,2.636714e+03
6.450737e+02,2.623119e+03
6.556803e+02,2.615845e+03
6.662869e+02,2.601419e+03
6.768934e+02,2.836661e+03
6.875000e+02,2.599373e+03
6.981066e+02,2.579165e+03
7.087131e+02,2.543167e+03
7.193197e+02,2.555539e+03
7.299263e+02,2.512771e+03
7.405328e+02,2.595114e+03
7.511394e+02,2.519935e+03
7.617460e+02,2.466087e+03
7.723525e+02,2.454519e+03
7.829591e+02,2.461828e+03
7.935657e+02,2.427753e+03
8.041722e+02,2.395730e+03
8.147788e+02,2.383097e+03
8.253854e+02,2.380370e+03
8.359919e+02,2.372732e+03
8.465985e+02,2.382227e+03
8.572051e+02,2.341334e+03
8.678116e+02,2.323630e+03
8.784182e+02,2.308677e+03
8.890248e+02,2.295927e+03
8.996313e+02,2.265294e+03
9.102379e+02,2.258608e+03
9.208445e+02,2.247972e+03
9.314510e+02,2.236928e+03
9.420576e+02,2.205063e+03
9.526642e+02,2.277777e+03
9.632708e+02,2.188088e+03
9.738773e+02,2.165138e+03
9.844839e+02,2.141817e+03
9.950905e+02,2.141332e+03
1.005697e+03,2.148764e+03
1.016304e+03,2.099804e+03
1.026910e+03,2.093553e+03
1.037517e+03,2.100607e+03
1.048123e+03,2.078756e+03
1.058730e+03,2.076938e+03
1.069336e+03,2.061307e+03
1.079943e+03,2.048857e+03
1.090550e+03,2.069615e+03
1.101156e+03,2.057751e+03
1.111763e+03,2.058867e+03
1.122369e+03,2.033095e+03
1.132976e+03,2.032714e+03
1.143582e+03,2.112606e+03
1.154189e+03,1.995404e+03
1.164796e+03,1.969374e+03
1.175402e+03,1.936334e+03
1.186009e+03,1.947976e+03
1.196615e+03,1.965479e+03
1.207222e+03,1.962697e+03
1.217828e+03,1.945458e+03
1.228435e+03,1.882702e+03
1.239042e+03,1.868819e+03
1.249648e+03,1.843936e+03
1.260255e+03,1.838514e+03
1.270861e+03,1.850030e+03
1.281468e+03,1.830802e+03
1.292074e+03,1.841892e+03
1.302681e+03,1.882001e+03
1.313287e+03,1.825544e+03
1.323894e+03,1.831450e+03
1.334501e+03,1.995944e+03
1.345107e+03,1.930250e+03
1.355714e+03,1.798939e+03
1.366320e+03,1.786710e+03
1.376927e+03,1.778392e+03
1.387533e+03,1.747680e+03
1.398140e+03,1.739553e+03
1.408747e+03,1.731870e+03
1.419353e+03,1.740135e+03
1.429960e+03,1.727327e+03
1.440566e+03,1.718559e+03
1.451173e+03,1.823821e+03
1.461779e+03,1.695860e+03
1.472386e+03,1.682859e+03
1.482993e+03,1.661156e+03
1.493599e+03,1.651314e+03
1.504206e+03,1.651002e+03
1.514812e+03,1.645692e+03
1.525419e+03,2.170458e+03
1.536025e+03,1.715873e+03
1.546632e+03,1.614770e+03
1.557239e+03,1.596803e+03
1.567845e+03,1.578958e+03
1.578452e+03,1.576483e+03
1.589058e+03,1.573440e+03
1.599665e+03,1.553041e+03
1.610271e+03,1.549387e+03
1.620878e+03,1.522637e+03
1.631484e+03,1.517164e+03
1.642091e+03,1.492218e+03
1.652698e+03,1.486222e+03
1.663304e+03,1.498216e+03
1.673911e+03,1.465667e+03
1.684517e+03,1.446521e+03
1.695124e+03,1.449108e+03
1.705730e+03,1.444993e+03
1.716337e+03,1.395876e+03
1.726944e+03,1.408910e+03
1.737550e+03,1.397838e+03
1.748157e+03,1.381049e+03
1.758763e+03,1.366276e+03
1.769370e+03,1.371393e+03
1.779976e+03,1.363672e+03
1.790583e+03,1.339062e+03
1.801190e+03,1.334846e+03
1.811796e+03,1.318528e+03
1.822403e+03,1.306177e+03
1.833009e+03,1.290595e+03
1.843616e+03,1.278316e+03
1.854222e+03,1.255899e+03
1.864829e+03,1.263041e+03
1.875436e+03,1.254906e+03
1.886042e+03,1.239522e+03
1.896649e+03,1.223605e+03
1.907255e+03,1.218319e+03
1.917862e+03,1.203431e+03
1.928468e+03,1.180564e+03
1.939075e+03,1.193598e+03
1.949682e+03,1.164860e+03
1.960288e+03,1.174196e+03
1.970895e+03,1.153237e+03
1.981501e+03,1.143303e+03
1.992108e+03,1.127631e+03
2.002714e+03,1.113146e+03
2.013321e+03,1.103977e+03
2.023927e+03,1.098278e+03
2.034534e+03,1.088005e+03
2.045141e+03,1.063258e+03
2.055747e+03,1.052481e+03
2.066354e+03,1.046036e+03
2.076960e+03,1.042648e+03
2.087567e+03,1.033136e+03
2.098173e+03,1.023464e+03
2.108780e+03,1.004238e+03
2.119387e+03,9.910400e+02
2.129993e+03,9.740992e+02
2.140600e+03,9.673127e+02
2.151206e+03,9.671045e+02
2.161813e+03,9.466857e+02
2.172419e+03,9.438699e+02
2.183026e+03,9.320889e+02
2.193633e+03,9.304639e+02
2.204239e+03,9.141531e+02
2.214846e+03,9.049406e+02
2.225452e+03,8.948690e+02
2.236059e+03,8.800798e+02
2.246666e+03,8.678360e+02
2.257272e+03,8.554106e+02
2.267879e+03,8.578575e+02
2.278485e+03,8.301214e+02
2.289092e+03,8.326985e+02
2.299698e+03,8.228115e+02
2.310305e+03,8.110959e+02
2.320911e+03,8.089296e+02
2.331518e+03,7.884906e+02
2.342125e+03,7.818492e+02
2.352731e+03,7.729041e+02
2.363338e+03,7.825305e+02
2.373944e+03,7.644307e+02
2.384551e+03,7.546679e+02
2.395157e+03,7.361390e+02
2.405764e+03,7.435234e+02
2.416370e+03,7.256298e+02
2.426977e+03,7.406251e+02
2.437584e+03,7.115165e+02
2.448190e+03,7.135684e+02
2.458797e+03,7.090936e+02
2.469403e+03,6.975646e+02
2.480010e+03,6.981909e+02
2.490616e+03,6.799520e+02
2.501223e+03,6.763979e+02
2.511830e+03,6.827186e+02
2.522436e+03,6.733748e+02
2.533043e+03,6.524322e+02
2.543649e+03,6.635849e+02
2.554256e+03,6.703679e+02
2.564863e+03,6.630477e+02
2.575469e+03,6.460145e+02
2.586075e+03,6.339122e+02
2.596682e+03,6.403312e+02
2.607289e+03,6.210973e+02
2.617895e+03,6.169351e+02
2.628502e+03,6.230414e+02
2.639108e+03,6.083841e+02
2.649715e+03,6.092410e+02
2.660322e+03,6.049378e+02
2.670928e+03,5.983126e+02
2.681535e+03,5.957093e+02
2.692141e+03,5.845588e+02
2.702748e+03,5.849468e+02
2.713354e+03,5.845460e+02
2.723961e+03,5.839167e+02
2.734568e+03,5.791710e+02
2.745174e+03,5.805928e+02
2.755781e+03,5.617932e+02
2.766387e+03,5.565607e+02
2.776994e+03,5.625440e+02
2.787600e+03,5.528225e+02
2.798207e+03,5.539589e+02
2.808813e+03,5.501135e+02
2.819420e+03,5.412087e+02
2.830027e+03,5.530851e+02
2.840633e+03,5.433929e+02
2.851240e+03,5.570201e+02
2.861846e+03,5.478162e+02
2.872453e+03,5.700486e+02
2.883059e+03,5.734411e+02
2.893666e+03,5.804312e+02
2.904273e+03,5.835347e+02
2.914879e+03,5.641245e+02
2.925486e+03,5.446281e+02
2.936092e+03,5.384025e+02
2.946699e+03,5.462094e+02
2.957305e+03,5.854305e+02
2.967912e+03,5.495192e+02
2.978519e+03,5.302853e+02
2.989125e+03,5.106456e+02
2.999732e+03,5.114852e+02
3.010338e+03,5.322573e+02
3.020945e+03,5.176607e+02
3.031552e+03,5.032434e+02
3.042158e+03,5.187054e+02
3.052764e+03,5.343563e+02
3.063371e+03,5.138012e+02
3.073978e+03,5.345627e+02
3.084584e+03,5.023163e+02
3.095191e+03,5.234692e+02
3.105797e+03,5.037542e+02
3.116404e+03,5.135980e+02
3.127010e+03,5.209802e+02
3.137617e+03,5.179070e+02
3.148224e+03,5.014806e+02
3.158830e+03,5.309700e+02
3.169437e+03,5.341070e+02
3.180043e+03,5.147092e+02
3.190650e+03,5.222113e+02
3.200292e+03,5.494586e+02