File: RAMAN_data/06022023_r1/blue frag4.CSV
1.995979e+02,4.937341e+03
2.102045e+02,4.999361e+03
2.208110e+02,5.055228e+03
2.314176e+02,5.130269e+03
2.420242e+02,5.178265e+03
2.526307e+02,5.301764e+03
2.632373e+02,5.382394e+03
2.738439e+02,5.445972e+03
2.844504e+02,5.547696e+03
2.950570e+02,5.526674e+03
3.056636e+02,5.559927e+03
3.162701e+02,5.610757e+03
3.268767e+02,5.659213e+03
3.374833e+02,5.669306e+03
3.480898e+02,5.746063e+03
3.586964e+02,5.762070e+03
3.693030e+02,5.816715e+03
3.799095e+02,5.869665e+03
3.905161e+02,5.873565e+03
4.011227e+02,5.887119e+03
4.117292e+02,5.907659e+03
4.223358e+02,5.945191e+03
4.329424e+02,5.997453e+03
4.435490e+02,5.983133e+03
4.541555e+02,6.010297e+03
4.647621e+02,6.000952e+03
4.753687e+02,6.017572e+03
4.859752e+02,6.031134e+03
4.965818e+02,6.043112e+03
5.071884e+02,6.050688e+03
5.177949e+02,6.074429e+03
5.284015e+02,6.083897e+03
5.390081e+02,6.103294e+03
5.496146e+02,6.151124e+03
5.602212e+02,6.231549e+03
5.708278e+02,6.071674e+03
5.814343e+02,6.057561e+03
5.920409e+02,6.062097e+03
6.026475e+02,6.096731e+03
6.132540e+02,6.131612e+03
6.238606e+02,6.017027e+03
6.344672e+02,6.011799e+03
6.450737e+02,5.973646e+03
6.556803e+02,5.954172e+03
6.662869e+02,5.925760e+03
6.768934e+02,5.882688e+03
6.875000e+02,5.879744e+03
6.981066e+02,5.850711e+03
7.087131e+02,5.804885e+03
7.193197e+02,5.787212e+03
7.299263e+02,5.763031e+03
7.405328e+02,5.709765e+03
7.511394e+02,5.691171e+03
7.617460e+02,5.652268e+03
7.723525e+02,5.622077e+03
7.829591e+02,5.635820e+03
7.935657e+02,5.598564e+03
8.041722e+02,5.535013e+03
8.147788e+02,5.490360e+03
8.253854e+02,5.455120e+03
8.359919e+02,5.440422e+03
8.465985e+02,5.387045e+03
8.572051e+02,5.336486e+03
8.678116e+02,5.308993e+03
8.784182e+02,5.280888e+03
8.890248e+02,5.251196e+03
8.996313e+02,5.211799e+03
9.102379e+02,5.141130e+03
9.208445e+02,5.118565e+03
9.314510e+02,5.067441e+03
9.420576e+02,5.014573e+03
9.526642e+02,4.961484e+03
9.632708e+02,4.945292e+03
9.738773e+02,4.894353e+03
9.844839e+02,4.843361e+03
9.950905e+02,4.835769e+03
1.005697e+03,4.758775e+03
1.016304e+03,4.725466e+03
1.026910e+03,4.677060e+03
1.037517e+03,4.669084e+03
1.048123e+03,4.615732e+03
1.058730e+03,4.579980e+03
1.069336e+03,4.559359e+03
1.079943e+03,4.551292e+03
1.090550e+03,4.551829e+03
1.101156e+03,4.440503e+03
1.111763e+03,4.427009e+03
1.122369e+03,4.403124e+03
1.132976e+03,4.364461e+03
1.143582e+03,4.297772e+03
1.154189e+03,4.250167e+03
1.164796e+03,4.218278e+03
1.175402e+03,4.163187e+03
1.186009e+03,4.153279e+03
1.196615e+03,4.133621e+03
1.207222e+03,4.060511e+03
1.217828e+03,4.047533e+03
1.228435e+03,4.026734e+03
1.239042e+03,3.985918e+03
1.249648e+03,3.946941e+03
1.260255e+03,3.908790e+03
1.270861e+03,3.886219e+03
1.281468e+03,3.836202e+03
1.292074e+03,3.827608e+03
1.302681e+03,3.777395e+03
1.313287e+03,3.774620e+03
1.323894e+03,3.744585e+03
1.334501e+03,3.750777e+03
1.345107e+03,3.695297e+03
1.355714e+03,3.682899e+03
1.366320e+03,3.672762e+03
1.376927e+03,3.615864e+03
1.387533e+03,3.582607e+03
1.398140e+03,3.553417e+03
1.408747e+03,3.522721e+03
1.419353e+03,3.505841e+03
1.429960e+03,3.482313e+03
1.440566e+03,3.457011e+03
1.451173e+03,3.475257e+03
1.461779e+03,3.440776e+03
1.472386e+03,3.382642e+03
1.482993e+03,3.360695e+03
1.493599e+03,3.352145e+03
1.504206e+03,3.336628e+03
1.514812e+03,3.311983e+03
1.525419e+03,3.280072e+03
1.536025e+03,3.238413e+03
1.546632e+03,3.215999e+03
1.557239e+03,3.220244e+03
1.567845e+03,3.274932e+03
1.578452e+03,3.227244e+03
1.589058e+03,3.161273e+03
1.599665e+03,3.130337e+03
1.610271e+03,3.106802e+03
1.620878e+03,3.095278e+03
1.631484e+03,3.086980e+03
1.642091e+03,3.021245e+03
1.652698e+03,2.986418e+03
1.663304e+03,2.978343e+03
1.673911e+03,2.981332e+03
1.684517e+03,2.954564e+03
1.695124e+03,2.909626e+03
1.705730e+03,2.883540e+03
1.716337e+03,2.835994e+03
1.726944e+03,2.816871e+03
1.737550e+03,2.792096e+03
1.748157e+03,2.785959e+03
1.758763e+03,2.765226e+03
1.769370e+03,2.732097e+03
1.779976e+03,2.726286e+03
1.790583e+03,2.671568e+03
1.801190e+03,2.671947e+03
1.811796e+03,2.633988e+03
1.822403e+03,2.604741e+03
1.833009e+03,2.579667e+03
1.843616e+03,2.563354e+03
1.854222e+03,2.521222e+03
1.864829e+03,2.507429e+03
1.875436e+03,2.488528e+03
1.886042e+03,2.474765e+03
1.896649e+03,2.421046e+03
1.907255e+03,2.428805e+03
1.917862e+03,2.385974e+03
1.928468e+03,2.359032e+03
1.939075e+03,2.341984e+03
1.949682e+03,2.297203e+03
1.960288e+03,2.283304e+03
1.970895e+03,2.273607e+03
1.981501e+03,2.245614e+03
1.992108e+03,2.222969e+03
2.002714e+03,2.200310e+03
2.013321e+03,2.165220e+03
2.023927e+03,2.123949e+03
2.034534e+03,2.136700e+03
2.045141e+03,2.082824e+03
2.055747e+03,2.067604e+03
2.066354e+03,2.032309e+03
2.076960e+03,2.033313e+03
2.087567e+03,1.999755e+03
2.098173e+03,1.976959e+03
2.108780e+03,1.953257e+03
2.119387e+03,1.929521e+03
2.129993e+03,1.895196e+03
2.140600e+03,1.884405e+03
2.151206e+03,1.876572e+03
2.161813e+03,1.853638e+03
2.172419e+03,1.817180e+03
2.183026e+03,1.775812e+03
2.193633e+03,1.780206e+03
2.204239e+03,1.746189e+03
2.214846e+03,1.746883e+03
2.225452e+03,1.694453e+03
2.236059e+03,1.698110e+03
2.246666e+03,1.665871e+03
2.257272e+03,1.637434e+03
2.267879e+03,1.613275e+03
2.278485e+03,1.605739e+03
2.289092e+03,1.582779e+03
2.299698e+03,1.559640e+03
2.310305e+03,1.542491e+03
2.320911e+03,1.532549e+03
2.331518e+03,1.493590e+03
2.342125e+03,1.493318e+03
2.352731e+03,1.473221e+03
2.363338e+03,1.446330e+03
2.373944e+03,1.425978e+03
2.384551e+03,1.405010e+03
2.395157e+03,1.387506e+03
2.405764e+03,1.368731e+03
2.416370e+03,1.342469e+03
2.426977e+03,1.353942e+03
2.437584e+03,1.339599e+03
2.448190e+03,1.288480e+03
2.458797e+03,1.303413e+03
2.469403e+03,1.259333e+03
2.480010e+03,1.268582e+03
2.490616e+03,1.252768e+03
2.501223e+03,1.232322e+03
2.511830e+03,1.211942e+03
2.522436e+03,1.193259e+03
2.533043e+03,1.203492e+03
2.543649e+03,1.183257e+03
2.554256e+03,1.172517e+03
2.564863e+03,1.152188e+03
2.575469e+03,1.149844e+03
2.586075e+03,1.123002e+03
2.596682e+03,1.114064e+03
2.607289e+03,1.087920e+03
2.617895e+03,1.098049e+03
2.628502e+03,1.076896e+03
2.639108e+03,1.050028e+03
2.649715e+03,1.055205e+03
2.660322e+03,1.041080e+03
2.670928e+03,1.024175e+03
2.681535e+03,1.038640e+03
2.692141e+03,9.882559e+02
2.702748e+03,1.010749e+03
2.713354e+03,9.888254e+02
2.723961e+03,9.835667e+02
2.734568e+03,9.791384e+02
2.745174e+03,9.373636e+02
2.755781e+03,9.578876e+02
2.766387e+03,9.163199e+02
2.776994e+03,9.184656e+02
2.787600e+03,9.241719e+02
2.798207e+03,9.103856e+02
2.808813e+03,8.992560e+02
2.819420e+03,8.875590e+02
2.830027e+03,8.945656e+02
2.840633e+03,8.831426e+02
2.851240e+03,8.874095e+02
2.861846e+03,9.031314e+02
2.872453e+03,8.829423e+02
2.883059e+03,8.820461e+02
2.893666e+03,8.882209e+02
2.904273e+03,8.817610e+02
2.914879e+03,8.737687e+02
2.925486e+03,8.337441e+02
2.936092e+03,8.490652e+02
2.946699e+03,8.258356e+02
2.957305e+03,8.632116e+02
2.967912e+03,7.838441e+02
2.978519e+03,8.098972e+02
2.989125e+03,7.649537e+02
2.999732e+03,7.913183e+02
3.010338e+03,7.850328e+02
3.020945e+03,7.874416e+02
3.031552e+03,7.559634e+02
3.042158e+03,7.937370e+02
3.052764e+03,7.473690e+02
3.063371e+03,7.780309e+02
3.073978e+03,7.493573e+02
3.084584e+03,7.466534e+02
3.095191e+03,7.671849e+02
3.105797e+03,7.292737e+02
3.116404e+03,7.670510e+02
3.127010e+03,7.636097e+02
3.137617e+03,7.602278e+02
3.148224e+03,7.592555e+02
3.158830e+03,7.146683e+02
3.169437e+03,7.724291e+02
3.180043e+03,7.714153e+02
3.190650e+03,7.764418e+02
3.200292e+03,7.844591e+02