File: RAMAN_data/06022023_r1/blue frag1.CSV
1.995979e+02,2.935258e+03
2.102045e+02,2.954632e+03
2.208110e+02,2.957847e+03
2.314176e+02,2.946915e+03
2.420242e+02,2.944087e+03
2.526307e+02,2.958308e+03
2.632373e+02,2.945398e+03
2.738439e+02,2.947391e+03
2.844504e+02,2.962928e+03
2.950570e+02,2.933268e+03
3.056636e+02,2.914326e+03
3.162701e+02,2.927554e+03
3.268767e+02,2.917343e+03
3.374833e+02,2.909335e+03
3.480898e+02,2.909125e+03
3.586964e+02,2.880573e+03
3.693030e+02,2.880910e+03
3.799095e+02,2.886340e+03
3.905161e+02,2.856577e+03
4.011227e+02,2.854646e+03
4.117292e+02,2.830365e+03
4.223358e+02,2.832767e+03
4.329424e+02,2.819726e+03
4.435490e+02,2.801087e+03
4.541555e+02,2.786694e+03
4.647621e+02,2.754213e+03
4.753687e+02,2.758202e+03
4.859752e+02,2.736057e+03
4.965818e+02,2.730366e+03
5.071884e+02,2.711903e+03
5.177949e+02,2.708469e+03
5.284015e+02,2.685129e+03
5.390081e+02,2.664907e+03
5.496146e+02,2.663227e+03
5.602212e+02,2.638769e+03
5.708278e+02,2.613331e+03
5.814343e+02,2.620101e+03
5.920409e+02,2.631965e+03
6.026475e+02,2.602548e+03
6.132540e+02,2.583828e+03
6.238606e+02,2.558993e+03
6.344672e+02,2.560160e+03
6.450737e+02,2.523967e+03
6.556803e+02,2.519633e+03
6.662869e+02,2.507999e+03
6.768934e+02,2.546591e+03
6.875000e+02,2.523991e+03
6.981066e+02,2.491298e+03
7.087131e+02,2.459137e+03
7.193197e+02,2.444699e+03
7.299263e+02,2.433970e+03
7.405328e+02,2.503091e+03
7.511394e+02,2.414638e+03
7.617460e+02,2.403044e+03
7.723525e+02,2.423048e+03
7.829591e+02,2.360676e+03
7.935657e+02,2.346327e+03
8.041722e+02,2.330281e+03
8.147788e+02,2.336386e+03
8.253854e+02,2.314687e+03
8.359919e+02,2.301355e+03
8.465985e+02,2.273280e+03
8.572051e+02,2.270938e+03
8.678116e+02,2.251728e+03
8.784182e+02,2.250556e+03
8.890248e+02,2.232402e+03
8.996313e+02,2.214411e+03
9.102379e+02,2.193137e+03
9.208445e+02,2.171013e+03
9.314510e+02,2.168565e+03
9.420576e+02,2.151024e+03
9.526642e+02,2.142611e+03
9.632708e+02,2.145723e+03
9.738773e+02,2.120998e+03
9.844839e+02,2.108083e+03
9.950905e+02,2.099579e+03
1.005697e+03,2.088064e+03
1.016304e+03,2.072036e+03
1.026910e+03,2.067680e+03
1.037517e+03,2.068971e+03
1.048123e+03,2.054274e+03
1.058730e+03,2.036427e+03
1.069336e+03,2.034163e+03
1.079943e+03,2.027388e+03
1.090550e+03,2.047659e+03
1.101156e+03,2.022261e+03
1.111763e+03,2.001727e+03
1.122369e+03,2.003776e+03
1.132976e+03,1.992933e+03
1.143582e+03,1.985852e+03
1.154189e+03,1.969612e+03
1.164796e+03,1.947820e+03
1.175402e+03,1.950729e+03
1.186009e+03,1.942778e+03
1.196615e+03,1.942469e+03
1.207222e+03,1.972385e+03
1.217828e+03,1.933299e+03
1.228435e+03,1.920186e+03
1.239042e+03,1.894188e+03
1.249648e+03,1.872572e+03
1.260255e+03,1.889066e+03
1.270861e+03,1.915699e+03
1.281468e+03,1.942295e+03
1.292074e+03,1.923340e+03
1.302681e+03,1.888384e+03
1.313287e+03,1.890267e+03
1.323894e+03,1.901710e+03
1.334501e+03,1.984002e+03
1.345107e+03,1.893948e+03
1.355714e+03,1.870210e+03
1.366320e+03,1.860008e+03
1.376927e+03,1.834639e+03
1.387533e+03,1.827012e+03
1.398140e+03,1.829579e+03
1.408747e+03,1.802556e+03
1.419353e+03,1.814714e+03
1.429960e+03,1.804005e+03
1.440566e+03,1.809785e+03
1.451173e+03,1.818456e+03
1.461779e+03,1.789947e+03
1.472386e+03,1.787604e+03
1.482993e+03,1.767727e+03
1.493599e+03,1.762916e+03
1.504206e+03,1.787682e+03
1.514812e+03,1.808360e+03
1.525419e+03,1.972270e+03
1.536025e+03,1.916982e+03
1.546632e+03,1.775789e+03
1.557239e+03,1.762120e+03
1.567845e+03,1.729138e+03
1.578452e+03,1.717054e+03
1.589058e+03,1.716558e+03
1.599665e+03,1.700326e+03
1.610271e+03,1.696456e+03
1.620878e+03,1.694754e+03
1.631484e+03,1.672915e+03
1.642091e+03,1.660238e+03
1.652698e+03,1.668328e+03
1.663304e+03,1.660719e+03
1.673911e+03,1.651229e+03
1.684517e+03,1.650074e+03
1.695124e+03,1.650363e+03
1.705730e+03,1.640488e+03
1.716337e+03,1.633349e+03
1.726944e+03,1.619793e+03
1.737550e+03,1.624080e+03
1.748157e+03,1.611514e+03
1.758763e+03,1.609630e+03
1.769370e+03,1.600734e+03
1.779976e+03,1.596965e+03
1.790583e+03,1.582629e+03
1.801190e+03,1.608695e+03
1.811796e+03,1.586119e+03
1.822403e+03,1.581884e+03
1.833009e+03,1.584215e+03
1.843616e+03,1.571587e+03
1.854222e+03,1.559875e+03
1.864829e+03,1.566461e+03
1.875436e+03,1.560795e+03
1.886042e+03,1.551232e+03
1.896649e+03,1.546193e+03
1.907255e+03,1.540823e+03
1.917862e+03,1.532833e+03
1.928468e+03,1.532802e+03
1.939075e+03,1.539084e+03
1.949682e+03,1.517845e+03
1.960288e+03,1.517949e+03
1.970895e+03,1.506209e+03
1.981501e+03,1.507168e+03
1.992108e+03,1.509618e+03
2.002714e+03,1.504566e+03
2.013321e+03,1.495010e+03
2.023927e+03,1.493715e+03
2.034534e+03,1.496980e+03
2.045141e+03,1.474355e+03
2.055747e+03,1.470560e+03
2.066354e+03,1.472318e+03
2.076960e+03,1.476033e+03
2.087567e+03,1.460962e+03
2.098173e+03,1.472776e+03
2.108780e+03,1.455317e+03
2.119387e+03,1.459161e+03
2.129993e+03,1.441334e+03
2.140600e+03,1.443908e+03
2.151206e+03,1.425440e+03
2.161813e+03,1.426701e+03
2.172419e+03,1.409071e+03
2.183026e+03,1.410141e+03
2.193633e+03,1.419658e+03
2.204239e+03,1.397962e+03
2.214846e+03,1.409438e+03
2.225452e+03,1.374818e+03
2.236059e+03,1.368435e+03
2.246666e+03,1.367554e+03
2.257272e+03,1.378636e+03
2.267879e+03,1.365614e+03
2.278485e+03,1.362917e+03
2.289092e+03,1.356586e+03
2.299698e+03,1.341519e+03
2.310305e+03,1.328237e+03
2.320911e+03,1.329988e+03
2.331518e+03,1.315577e+03
2.342125e+03,1.313160e+03
2.352731e+03,1.284404e+03
2.363338e+03,1.294911e+03
2.373944e+03,1.293714e+03
2.384551e+03,1.290893e+03
2.395157e+03,1.271224e+03
2.405764e+03,1.278507e+03
2.416370e+03,1.261495e+03
2.426977e+03,1.275738e+03
2.437584e+03,1.241690e+03
2.448190e+03,1.265462e+03
2.458797e+03,1.232890e+03
2.469403e+03,1.240524e+03
2.480010e+03,1.242562e+03
2.490616e+03,1.225437e+03
2.501223e+03,1.212107e+03
2.511830e+03,1.200424e+03
2.522436e+03,1.219455e+03
2.533043e+03,1.173151e+03
2.543649e+03,1.195374e+03
2.554256e+03,1.189010e+03
2.564863e+03,1.177282e+03
2.575469e+03,1.186782e+03
2.586075e+03,1.149227e+03
2.596682e+03,1.162466e+03
2.607289e+03,1.129635e+03
2.617895e+03,1.137600e+03
2.628502e+03,1.138759e+03
2.639108e+03,1.142593e+03
2.649715e+03,1.119084e+03
2.660322e+03,1.107887e+03
2.670928e+03,1.116821e+03
2.681535e+03,1.116918e+03
2.692141e+03,1.090303e+03
2.702748e+03,1.108934e+03
2.713354e+03,1.093912e+03
2.723961e+03,1.078863e+03
2.734568e+03,1.066433e+03
2.745174e+03,1.080233e+03
2.755781e+03,1.060479e+03
2.766387e+03,1.058291e+03
2.776994e+03,1.042634e+03
2.787600e+03,1.051314e+03
2.798207e+03,1.041019e+03
2.808813e+03,1.040283e+03
2.819420e+03,1.033189e+03
2.830027e+03,1.029624e+03
2.840633e+03,1.041724e+03
2.851240e+03,1.051842e+03
2.861846e+03,1.032054e+03
2.872453e+03,1.001970e+03
2.883059e+03,1.010640e+03
2.893666e+03,1.038809e+03
2.904273e+03,1.019137e+03
2.914879e+03,1.006096e+03
2.925486e+03,1.027829e+03
2.936092e+03,1.015629e+03
2.946699e+03,1.015763e+03
2.957305e+03,1.042869e+03
2.967912e+03,9.844655e+02
2.978519e+03,9.978382e+02
2.989125e+03,9.688934e+02
2.999732e+03,9.425646e+02
3.010338e+03,9.499703e+02
3.020945e+03,9.547908e+02
3.031552e+03,9.609872e+02
3.042158e+03,9.827515e+02
3.052764e+03,9.591688e+02
3.063371e+03,9.515629e+02
3.073978e+03,9.460098e+02
3.084584e+03,9.177542e+02
3.095191e+03,9.519744e+02
3.105797e+03,9.223251e+02
3.116404e+03,9.768363e+02
3.127010e+03,9.937050e+02
3.137617e+03,9.946900e+02
3.148224e+03,9.013328e+02
3.158830e+03,9.408567e+02
3.169437e+03,9.862055e+02
3.180043e+03,9.761860e+02
3.190650e+03,9.593522e+02
3.200292e+03,1.020078e+03