File: RAMAN_data/06022023_r1/blue fibre1.CSV
1.995979e+02,7.218718e+03
2.102045e+02,7.359700e+03
2.208110e+02,7.374756e+03
2.314176e+02,7.426317e+03
2.420242e+02,7.489494e+03
2.526307e+02,7.573672e+03
2.632373e+02,7.640528e+03
2.738439e+02,7.695584e+03
2.844504e+02,7.780508e+03
2.950570e+02,7.827441e+03
3.056636e+02,7.862862e+03
3.162701e+02,7.916443e+03
3.268767e+02,8.004913e+03
3.374833e+02,8.042123e+03
3.480898e+02,8.081215e+03
3.586964e+02,8.131222e+03
3.693030e+02,8.182100e+03
3.799095e+02,8.256001e+03
3.905161e+02,8.242610e+03
4.011227e+02,8.292036e+03
4.117292e+02,8.275577e+03
4.223358e+02,8.301660e+03
4.329424e+02,8.323275e+03
4.435490e+02,8.348504e+03
4.541555e+02,8.412633e+03
4.647621e+02,8.404137e+03
4.753687e+02,8.504081e+03
4.859752e+02,8.463052e+03
4.965818e+02,8.460023e+03
5.071884e+02,8.459896e+03
5.177949e+02,8.490909e+03
5.284015e+02,8.450623e+03
5.390081e+02,8.449571e+03
5.496146e+02,8.474448e+03
5.602212e+02,8.477399e+03
5.708278e+02,8.436834e+03
5.814343e+02,8.471966e+03
5.920409e+02,8.462798e+03
6.026475e+02,8.452710e+03
6.132540e+02,8.467645e+03
6.238606e+02,8.458326e+03
6.344672e+02,8.432074e+03
6.450737e+02,8.387394e+03
6.556803e+02,8.390253e+03
6.662869e+02,8.378408e+03
6.768934e+02,8.347899e+03
6.875000e+02,8.314112e+03
6.981066e+02,8.280624e+03
7.087131e+02,8.241946e+03
7.193197e+02,8.240396e+03
7.299263e+02,8.158619e+03
7.405328e+02,8.158100e+03
7.511394e+02,8.133650e+03
7.617460e+02,8.111729e+03
7.723525e+02,8.079162e+03
7.829591e+02,8.025913e+03
7.935657e+02,8.036015e+03
8.041722e+02,8.036765e+03
8.147788e+02,7.957499e+03
8.253854e+02,7.891173e+03
8.359919e+02,7.905261e+03
8.465985e+02,7.871922e+03
8.572051e+02,7.829729e+03
8.678116e+02,7.777865e+03
8.784182e+02,7.776647e+03
8.890248e+02,7.714683e+03
8.996313e+02,7.695821e+03
9.102379e+02,7.652396e+03
9.208445e+02,7.569694e+03
9.314510e+02,7.595115e+03
9.420576e+02,7.529869e+03
9.526642e+02,7.531341e+03
9.632708e+02,7.497284e+03
9.738773e+02,7.439442e+03
9.844839e+02,7.386352e+03
9.950905e+02,7.432773e+03
1.005697e+03,7.365695e+03
1.016304e+03,7.346125e+03
1.026910e+03,7.337935e+03
1.037517e+03,7.320835e+03
1.048123e+03,7.303944e+03
1.058730e+03,7.266117e+03
1.069336e+03,7.263646e+03
1.079943e+03,7.210669e+03
1.090550e+03,7.231669e+03
1.101156e+03,7.197899e+03
1.111763e+03,7.147745e+03
1.122369e+03,7.176565e+03
1.132976e+03,7.158975e+03
1.143582e+03,7.137159e+03
1.154189e+03,7.185875e+03
1.164796e+03,7.126315e+03
1.175402e+03,7.095089e+03
1.186009e+03,7.064147e+03
1.196615e+03,7.062616e+03
1.207222e+03,7.027237e+03
1.217828e+03,7.014081e+03
1.228435e+03,7.029494e+03
1.239042e+03,7.042177e+03
1.249648e+03,7.014349e+03
1.260255e+03,7.020187e+03
1.270861e+03,7.067369e+03
1.281468e+03,7.097452e+03
1.292074e+03,7.085145e+03
1.302681e+03,7.051144e+03
1.313287e+03,7.015950e+03
1.323894e+03,7.184708e+03
1.334501e+03,7.125906e+03
1.345107e+03,7.115764e+03
1.355714e+03,7.232198e+03
1.366320e+03,7.157531e+03
1.376927e+03,7.272667e+03
1.387533e+03,7.142363e+03
1.398140e+03,7.029623e+03
1.408747e+03,7.006834e+03
1.419353e+03,7.024203e+03
1.429960e+03,7.014243e+03
1.440566e+03,6.975580e+03
1.451173e+03,6.961719e+03
1.461779e+03,7.005220e+03
1.472386e+03,7.027411e+03
1.482993e+03,6.982472e+03
1.493599e+03,6.996547e+03
1.504206e+03,7.000989e+03
1.514812e+03,6.946628e+03
1.525419e+03,6.973957e+03
1.536025e+03,6.950344e+03
1.546632e+03,6.977548e+03
1.557239e+03,6.966620e+03
1.567845e+03,6.961906e+03
1.578452e+03,6.930126e+03
1.589058e+03,6.925644e+03
1.599665e+03,6.971913e+03
1.610271e+03,6.942713e+03
1.620878e+03,6.921390e+03
1.631484e+03,6.904127e+03
1.642091e+03,6.866083e+03
1.652698e+03,6.848042e+03
1.663304e+03,6.866187e+03
1.673911e+03,6.846187e+03
1.684517e+03,6.792862e+03
1.695124e+03,6.816626e+03
1.705730e+03,6.791755e+03
1.716337e+03,6.742164e+03
1.726944e+03,6.745548e+03
1.737550e+03,6.716233e+03
1.748157e+03,6.684135e+03
1.758763e+03,6.701366e+03
1.769370e+03,6.638940e+03
1.779976e+03,6.621910e+03
1.790583e+03,6.597113e+03
1.801190e+03,6.594548e+03
1.811796e+03,6.560556e+03
1.822403e+03,6.513483e+03
1.833009e+03,6.492123e+03
1.843616e+03,6.467908e+03
1.854222e+03,6.419199e+03
1.864829e+03,6.383588e+03
1.875436e+03,6.337755e+03
1.886042e+03,6.312016e+03
1.896649e+03,6.274909e+03
1.907255e+03,6.274594e+03
1.917862e+03,6.197472e+03
1.928468e+03,6.185294e+03
1.939075e+03,6.135808e+03
1.949682e+03,6.094760e+03
1.960288e+03,6.078478e+03
1.970895e+03,6.040729e+03
1.981501e+03,6.007258e+03
1.992108e+03,5.930114e+03
2.002714e+03,5.930909e+03
2.013321e+03,5.856037e+03
2.023927e+03,5.831821e+03
2.034534e+03,5.816884e+03
2.045141e+03,5.736383e+03
2.055747e+03,5.679319e+03
2.066354e+03,5.692330e+03
2.076960e+03,5.621274e+03
2.087567e+03,5.584276e+03
2.098173e+03,5.574011e+03
2.108780e+03,5.513745e+03
2.119387e+03,5.424524e+03
2.129993e+03,5.377618e+03
2.140600e+03,5.360539e+03
2.151206e+03,5.345856e+03
2.161813e+03,5.270712e+03
2.172419e+03,5.250530e+03
2.183026e+03,5.174018e+03
2.193633e+03,5.114262e+03
2.204239e+03,5.129465e+03
2.214846e+03,5.019326e+03
2.225452e+03,4.988341e+03
2.236059e+03,4.932820e+03
2.246666e+03,4.910372e+03
2.257272e+03,4.843783e+03
2.267879e+03,4.814546e+03
2.278485e+03,4.792367e+03
2.289092e+03,4.719616e+03
2.299698e+03,4.693433e+03
2.310305e+03,4.665619e+03
2.320911e+03,4.620907e+03
2.331518e+03,4.581266e+03
2.342125e+03,4.522035e+03
2.352731e+03,4.495084e+03
2.363338e+03,4.486365e+03
2.373944e+03,4.459772e+03
2.384551e+03,4.409827e+03
2.395157e+03,4.360534e+03
2.405764e+03,4.350271e+03
2.416370e+03,4.308485e+03
2.426977e+03,4.266695e+03
2.437584e+03,4.210992e+03
2.448190e+03,4.180244e+03
2.458797e+03,4.149957e+03
2.469403e+03,4.127859e+03
2.480010e+03,4.105753e+03
2.490616e+03,4.079400e+03
2.501223e+03,4.076936e+03
2.511830e+03,4.033584e+03
2.522436e+03,3.973526e+03
2.533043e+03,3.965476e+03
2.543649e+03,3.945780e+03
2.554256e+03,3.907059e+03
2.564863e+03,3.900874e+03
2.575469e+03,3.852993e+03
2.586075e+03,3.778137e+03
2.596682e+03,3.810789e+03
2.607289e+03,3.757847e+03
2.617895e+03,3.718457e+03
2.628502e+03,3.734529e+03
2.639108e+03,3.736707e+03
2.649715e+03,3.707610e+03
2.660322e+03,3.630447e+03
2.670928e+03,3.626988e+03
2.681535e+03,3.652706e+03
2.692141e+03,3.582311e+03
2.702748e+03,3.583353e+03
2.713354e+03,3.584382e+03
2.723961e+03,3.553228e+03
2.734568e+03,3.503545e+03
2.745174e+03,3.471951e+03
2.755781e+03,3.472566e+03
2.766387e+03,3.432748e+03
2.776994e+03,3.405693e+03
2.787600e+03,3.386524e+03
2.798207e+03,3.391896e+03
2.808813e+03,3.355219e+03
2.819420e+03,3.368081e+03
2.830027e+03,3.324359e+03
2.840633e+03,3.353854e+03
2.851240e+03,3.321394e+03
2.861846e+03,3.295927e+03
2.872453e+03,3.258580e+03
2.883059e+03,3.254691e+03
2.893666e+03,3.277193e+03
2.904273e+03,3.262285e+03
2.914879e+03,3.175368e+03
2.925486e+03,3.127121e+03
2.936092e+03,3.165211e+03
2.946699e+03,3.165996e+03
2.957305e+03,3.176500e+03
2.967912e+03,3.106488e+03
2.978519e+03,3.081688e+03
2.989125e+03,3.073188e+03
2.999732e+03,3.029017e+03
3.010338e+03,3.016040e+03
3.020945e+03,3.013113e+03
3.031552e+03,3.007414e+03
3.042158e+03,3.000734e+03
3.052764e+03,2.943673e+03
3.063371e+03,2.924443e+03
3.073978e+03,2.913129e+03
3.084584e+03,2.947702e+03
3.095191e+03,2.914534e+03
3.105797e+03,2.889543e+03
3.116404e+03,2.920095e+03
3.127010e+03,2.864725e+03
3.137617e+03,2.939753e+03
3.148224e+03,2.909224e+03
3.158830e+03,2.830983e+03
3.169437e+03,2.878140e+03
3.180043e+03,2.779945e+03
3.190650e+03,2.789322e+03
3.200292e+03,2.885203e+03