File: RAMAN_data/06022023_r1/blue frag3.CSV
1.995979e+02,9.140507e+03
2.102045e+02,9.191675e+03
2.208110e+02,9.255443e+03
2.314176e+02,9.304783e+03
2.420242e+02,9.343162e+03
2.526307e+02,9.423234e+03
2.632373e+02,9.467731e+03
2.738439e+02,9.485873e+03
2.844504e+02,9.558010e+03
2.950570e+02,9.540597e+03
3.056636e+02,9.541434e+03
3.162701e+02,9.593542e+03
3.268767e+02,9.625751e+03
3.374833e+02,9.573824e+03
3.480898e+02,9.588771e+03
3.586964e+02,9.623922e+03
3.693030e+02,9.607718e+03
3.799095e+02,9.651424e+03
3.905161e+02,9.642703e+03
4.011227e+02,9.621502e+03
4.117292e+02,9.594235e+03
4.223358e+02,9.595046e+03
4.329424e+02,9.601129e+03
4.435490e+02,9.566405e+03
4.541555e+02,9.585462e+03
4.647621e+02,9.543876e+03
4.753687e+02,9.503100e+03
4.859752e+02,9.501588e+03
4.965818e+02,9.488079e+03
5.071884e+02,9.480980e+03
5.177949e+02,9.487028e+03
5.284015e+02,9.447203e+03
5.390081e+02,9.396484e+03
5.496146e+02,9.426871e+03
5.602212e+02,9.393671e+03
5.708278e+02,9.330483e+03
5.814343e+02,9.330818e+03
5.920409e+02,9.307730e+03
6.026475e+02,9.268076e+03
6.132540e+02,9.257391e+03
6.238606e+02,9.242240e+03
6.344672e+02,9.201156e+03
6.450737e+02,9.164952e+03
6.556803e+02,9.139865e+03
6.662869e+02,9.119733e+03
6.768934e+02,9.130708e+03
6.875000e+02,9.079931e+03
6.981066e+02,9.027984e+03
7.087131e+02,8.955593e+03
7.193197e+02,8.945713e+03
7.299263e+02,8.867637e+03
7.405328e+02,8.875074e+03
7.511394e+02,8.779595e+03
7.617460e+02,8.801732e+03
7.723525e+02,8.733808e+03
7.829591e+02,8.692259e+03
7.935657e+02,8.642268e+03
8.041722e+02,8.573691e+03
8.147788e+02,8.545100e+03
8.253854e+02,8.506652e+03
8.359919e+02,8.485081e+03
8.465985e+02,8.385254e+03
8.572051e+02,8.334053e+03
8.678116e+02,8.290373e+03
8.784182e+02,8.278083e+03
8.890248e+02,8.225614e+03
8.996313e+02,8.156898e+03
9.102379e+02,8.132523e+03
9.208445e+02,8.062352e+03
9.314510e+02,7.994805e+03
9.420576e+02,7.948994e+03
9.526642e+02,7.950894e+03
9.632708e+02,7.878747e+03
9.738773e+02,7.808099e+03
9.844839e+02,7.764292e+03
9.950905e+02,7.753688e+03
1.005697e+03,7.707423e+03
1.016304e+03,7.626812e+03
1.026910e+03,7.598071e+03
1.037517e+03,7.549882e+03
1.048123e+03,7.510236e+03
1.058730e+03,7.471260e+03
1.069336e+03,7.456409e+03
1.079943e+03,7.395122e+03
1.090550e+03,7.396696e+03
1.101156e+03,7.318134e+03
1.111763e+03,7.261155e+03
1.122369e+03,7.219536e+03
1.132976e+03,7.200179e+03
1.143582e+03,7.147051e+03
1.154189e+03,7.115539e+03
1.164796e+03,7.103190e+03
1.175402e+03,6.995928e+03
1.186009e+03,6.983900e+03
1.196615e+03,6.977813e+03
1.207222e+03,6.943435e+03
1.217828e+03,6.864208e+03
1.228435e+03,6.840679e+03
1.239042e+03,6.775375e+03
1.249648e+03,6.749365e+03
1.260255e+03,6.709051e+03
1.270861e+03,6.737119e+03
1.281468e+03,6.672138e+03
1.292074e+03,6.656896e+03
1.302681e+03,6.573978e+03
1.313287e+03,6.511811e+03
1.323894e+03,6.494948e+03
1.334501e+03,6.519398e+03
1.345107e+03,6.426687e+03
1.355714e+03,6.385022e+03
1.366320e+03,6.346178e+03
1.376927e+03,6.291508e+03
1.387533e+03,6.237650e+03
1.398140e+03,6.196548e+03
1.408747e+03,6.155626e+03
1.419353e+03,6.126861e+03
1.429960e+03,6.105970e+03
1.440566e+03,6.056904e+03
1.451173e+03,6.027336e+03
1.461779e+03,6.004534e+03
1.472386e+03,5.928052e+03
1.482993e+03,5.911269e+03
1.493599e+03,5.871732e+03
1.504206e+03,5.854804e+03
1.514812e+03,5.833905e+03
1.525419e+03,5.878762e+03
1.536025e+03,5.880516e+03
1.546632e+03,5.729744e+03
1.557239e+03,5.699355e+03
1.567845e+03,5.650713e+03
1.578452e+03,5.578599e+03
1.589058e+03,5.541662e+03
1.599665e+03,5.522269e+03
1.610271e+03,5.504983e+03
1.620878e+03,5.459906e+03
1.631484e+03,5.405934e+03
1.642091e+03,5.354624e+03
1.652698e+03,5.329780e+03
1.663304e+03,5.286896e+03
1.673911e+03,5.263412e+03
1.684517e+03,5.205937e+03
1.695124e+03,5.174097e+03
1.705730e+03,5.166334e+03
1.716337e+03,5.100417e+03
1.726944e+03,5.064026e+03
1.737550e+03,5.026064e+03
1.748157e+03,4.999414e+03
1.758763e+03,4.981591e+03
1.769370e+03,4.933061e+03
1.779976e+03,4.897796e+03
1.790583e+03,4.859157e+03
1.801190e+03,4.829436e+03
1.811796e+03,4.785858e+03
1.822403e+03,4.722661e+03
1.833009e+03,4.716120e+03
1.843616e+03,4.702908e+03
1.854222e+03,4.637161e+03
1.864829e+03,4.638029e+03
1.875436e+03,4.619975e+03
1.886042e+03,4.529147e+03
1.896649e+03,4.508370e+03
1.907255e+03,4.485400e+03
1.917862e+03,4.438090e+03
1.928468e+03,4.410812e+03
1.939075e+03,4.377044e+03
1.949682e+03,4.316506e+03
1.960288e+03,4.281415e+03
1.970895e+03,4.287128e+03
1.981501e+03,4.231027e+03
1.992108e+03,4.181791e+03
2.002714e+03,4.177030e+03
2.013321e+03,4.140513e+03
2.023927e+03,4.087749e+03
2.034534e+03,4.072205e+03
2.045141e+03,4.009126e+03
2.055747e+03,3.974391e+03
2.066354e+03,3.954597e+03
2.076960e+03,3.924825e+03
2.087567e+03,3.887392e+03
2.098173e+03,3.867844e+03
2.108780e+03,3.811282e+03
2.119387e+03,3.760674e+03
2.129993e+03,3.758476e+03
2.140600e+03,3.714835e+03
2.151206e+03,3.695184e+03
2.161813e+03,3.640887e+03
2.172419e+03,3.608507e+03
2.183026e+03,3.574326e+03
2.193633e+03,3.534493e+03
2.204239e+03,3.541913e+03
2.214846e+03,3.487001e+03
2.225452e+03,3.427500e+03
2.236059e+03,3.387239e+03
2.246666e+03,3.360211e+03
2.257272e+03,3.331000e+03
2.267879e+03,3.282376e+03
2.278485e+03,3.289398e+03
2.289092e+03,3.206445e+03
2.299698e+03,3.225960e+03
2.310305e+03,3.169148e+03
2.320911e+03,3.147864e+03
2.331518e+03,3.114057e+03
2.342125e+03,3.084934e+03
2.352731e+03,3.023390e+03
2.363338e+03,3.001462e+03
2.373944e+03,2.987103e+03
2.384551e+03,2.977518e+03
2.395157e+03,2.922180e+03
2.405764e+03,2.907589e+03
2.416370e+03,2.870331e+03
2.426977e+03,2.817905e+03
2.437584e+03,2.816039e+03
2.448190e+03,2.777276e+03
2.458797e+03,2.766635e+03
2.469403e+03,2.725616e+03
2.480010e+03,2.697419e+03
2.490616e+03,2.684668e+03
2.501223e+03,2.660827e+03
2.511830e+03,2.642772e+03
2.522436e+03,2.579522e+03
2.533043e+03,2.618024e+03
2.543649e+03,2.567901e+03
2.554256e+03,2.571679e+03
2.564863e+03,2.533234e+03
2.575469e+03,2.525188e+03
2.586075e+03,2.466610e+03
2.596682e+03,2.476524e+03
2.607289e+03,2.428065e+03
2.617895e+03,2.402746e+03
2.628502e+03,2.393848e+03
2.639108e+03,2.361690e+03
2.649715e+03,2.373802e+03
2.660322e+03,2.325610e+03
2.670928e+03,2.308898e+03
2.681535e+03,2.301394e+03
2.692141e+03,2.254595e+03
2.702748e+03,2.247327e+03
2.713354e+03,2.244259e+03
2.723961e+03,2.233657e+03
2.734568e+03,2.214578e+03
2.745174e+03,2.197843e+03
2.755781e+03,2.151770e+03
2.766387e+03,2.143908e+03
2.776994e+03,2.142414e+03
2.787600e+03,2.095070e+03
2.798207e+03,2.112407e+03
2.808813e+03,2.114080e+03
2.819420e+03,2.103945e+03
2.830027e+03,2.079999e+03
2.840633e+03,2.044650e+03
2.851240e+03,2.038557e+03
2.861846e+03,2.023982e+03
2.872453e+03,1.983562e+03
2.883059e+03,1.999829e+03
2.893666e+03,1.998935e+03
2.904273e+03,1.971504e+03
2.914879e+03,1.971093e+03
2.925486e+03,1.988401e+03
2.936092e+03,1.942343e+03
2.946699e+03,1.948418e+03
2.957305e+03,1.974866e+03
2.967912e+03,1.897998e+03
2.978519e+03,1.898925e+03
2.989125e+03,1.895323e+03
2.999732e+03,1.822313e+03
3.010338e+03,1.844753e+03
3.020945e+03,1.873749e+03
3.031552e+03,1.831037e+03
3.042158e+03,1.844112e+03
3.052764e+03,1.834216e+03
3.063371e+03,1.815931e+03
3.073978e+03,1.814724e+03
3.084584e+03,1.810209e+03
3.095191e+03,1.783918e+03
3.105797e+03,1.833498e+03
3.116404e+03,1.839741e+03
3.127010e+03,1.770247e+03
3.137617e+03,1.837362e+03
3.148224e+03,1.785643e+03
3.158830e+03,1.791431e+03
3.169437e+03,1.799491e+03
3.180043e+03,1.801448e+03
3.190650e+03,1.782967e+03
3.200292e+03,1.817269e+03