File: RAMAN_data/06022023_r1/blue fibre2.CSV
1.995979e+02,1.067968e+03
2.102045e+02,1.064823e+03
2.208110e+02,1.074699e+03
2.314176e+02,1.078123e+03
2.420242e+02,1.075817e+03
2.526307e+02,1.080230e+03
2.632373e+02,1.080086e+03
2.738439e+02,1.088831e+03
2.844504e+02,1.085584e+03
2.950570e+02,1.084247e+03
3.056636e+02,1.084501e+03
3.162701e+02,1.096708e+03
3.268767e+02,1.096334e+03
3.374833e+02,1.088168e+03
3.480898e+02,1.091927e+03
3.586964e+02,1.081423e+03
3.693030e+02,1.097170e+03
3.799095e+02,1.113620e+03
3.905161e+02,1.082958e+03
4.011227e+02,1.074998e+03
4.117292e+02,1.073916e+03
4.223358e+02,1.073718e+03
4.329424e+02,1.089738e+03
4.435490e+02,1.068963e+03
4.541555e+02,1.081661e+03
4.647621e+02,1.050633e+03
4.753687e+02,1.043149e+03
4.859752e+02,1.049216e+03
4.965818e+02,1.050661e+03
5.071884e+02,1.039198e+03
5.177949e+02,1.042994e+03
5.284015e+02,1.024253e+03
5.390081e+02,1.027381e+03
5.496146e+02,1.023115e+03
5.602212e+02,1.019420e+03
5.708278e+02,1.008085e+03
5.814343e+02,1.018138e+03
5.920409e+02,1.011438e+03
6.026475e+02,1.004152e+03
6.132540e+02,9.914128e+02
6.238606e+02,9.877870e+02
6.344672e+02,9.969373e+02
6.450737e+02,9.646445e+02
6.556803e+02,9.703754e+02
6.662869e+02,9.726080e+02
6.768934e+02,9.641025e+02
6.875000e+02,9.546580e+02
6.981066e+02,9.548782e+02
7.087131e+02,9.477521e+02
7.193197e+02,9.433669e+02
7.299263e+02,9.356631e+02
7.405328e+02,9.275697e+02
7.511394e+02,9.251136e+02
7.617460e+02,9.103811e+02
7.723525e+02,9.176215e+02
7.829591e+02,9.116199e+02
7.935657e+02,9.037692e+02
8.041722e+02,9.018915e+02
8.147788e+02,8.914122e+02
8.253854e+02,8.911313e+02
8.359919e+02,8.700245e+02
8.465985e+02,8.735534e+02
8.572051e+02,8.759998e+02
8.678116e+02,8.703511e+02
8.784182e+02,8.700552e+02
8.890248e+02,8.575510e+02
8.996313e+02,8.477795e+02
9.102379e+02,8.421378e+02
9.208445e+02,8.314260e+02
9.314510e+02,8.330587e+02
9.420576e+02,8.291899e+02
9.526642e+02,8.207598e+02
9.632708e+02,8.193653e+02
9.738773e+02,8.087872e+02
9.844839e+02,8.127144e+02
9.950905e+02,8.155126e+02
1.005697e+03,7.990146e+02
1.016304e+03,7.849329e+02
1.026910e+03,7.912316e+02
1.037517e+03,7.870765e+02
1.048123e+03,7.711707e+02
1.058730e+03,7.772647e+02
1.069336e+03,7.838242e+02
1.079943e+03,7.706552e+02
1.090550e+03,7.998858e+02
1.101156e+03,7.788049e+02
1.111763e+03,7.819345e+02
1.122369e+03,7.793688e+02
1.132976e+03,7.514316e+02
1.143582e+03,7.478826e+02
1.154189e+03,7.421580e+02
1.164796e+03,7.293043e+02
1.175402e+03,7.229742e+02
1.186009e+03,7.086691e+02
1.196615e+03,7.103935e+02
1.207222e+03,7.024605e+02
1.217828e+03,6.960055e+02
1.228435e+03,7.001103e+02
1.239042e+03,6.944252e+02
1.249648e+03,6.867164e+02
1.260255e+03,6.958531e+02
1.270861e+03,6.848995e+02
1.281468e+03,6.764759e+02
1.292074e+03,6.806096e+02
1.302681e+03,6.807529e+02
1.313287e+03,6.713013e+02
1.323894e+03,6.761074e+02
1.334501e+03,6.797038e+02
1.345107e+03,6.653948e+02
1.355714e+03,6.583298e+02
1.366320e+03,6.679055e+02
1.376927e+03,6.649198e+02
1.387533e+03,6.469716e+02
1.398140e+03,6.457949e+02
1.408747e+03,6.395345e+02
1.419353e+03,6.376993e+02
1.429960e+03,6.306082e+02
1.440566e+03,6.241991e+02
1.451173e+03,6.122459e+02
1.461779e+03,6.211367e+02
1.472386e+03,6.145253e+02
1.482993e+03,6.040998e+02
1.493599e+03,6.063544e+02
1.504206e+03,6.046698e+02
1.514812e+03,5.901812e+02
1.525419e+03,5.897259e+02
1.536025e+03,5.927558e+02
1.546632e+03,5.799822e+02
1.557239e+03,5.830511e+02
1.567845e+03,5.837632e+02
1.578452e+03,5.728227e+02
1.589058e+03,5.729686e+02
1.599665e+03,5.657263e+02
1.610271e+03,5.601330e+02
1.620878e+03,5.656242e+02
1.631484e+03,5.552623e+02
1.642091e+03,5.526574e+02
1.652698e+03,5.576363e+02
1.663304e+03,5.449993e+02
1.673911e+03,5.386080e+02
1.684517e+03,5.369444e+02
1.695124e+03,5.363835e+02
1.705730e+03,5.387855e+02
1.716337e+03,5.250801e+02
1.726944e+03,5.172560e+02
1.737550e+03,5.129815e+02
1.748157e+03,5.081768e+02
1.758763e+03,5.100258e+02
1.769370e+03,5.008101e+02
1.779976e+03,4.996515e+02
1.790583e+03,4.963770e+02
1.801190e+03,4.960576e+02
1.811796e+03,4.951107e+02
1.822403e+03,4.861025e+02
1.833009e+03,4.778438e+02
1.843616e+03,4.767749e+02
1.854222e+03,4.671518e+02
1.864829e+03,4.703533e+02
1.875436e+03,4.658911e+02
1.886042e+03,4.621257e+02
1.896649e+03,4.469140e+02
1.907255e+03,4.574340e+02
1.917862e+03,4.415667e+02
1.928468e+03,4.278110e+02
1.939075e+03,4.333532e+02
1.949682e+03,4.413283e+02
1.960288e+03,4.254755e+02
1.970895e+03,4.207745e+02
1.981501e+03,4.255309e+02
1.992108e+03,4.248089e+02
2.002714e+03,4.135760e+02
2.013321e+03,4.065441e+02
2.023927e+03,4.056228e+02
2.034534e+03,4.042150e+02
2.045141e+03,3.963271e+02
2.055747e+03,3.800050e+02
2.066354e+03,3.795414e+02
2.076960e+03,3.830734e+02
2.087567e+03,3.809711e+02
2.098173e+03,3.819844e+02
2.108780e+03,3.687975e+02
2.119387e+03,3.691103e+02
2.129993e+03,3.595745e+02
2.140600e+03,3.586495e+02
2.151206e+03,3.590262e+02
2.161813e+03,3.518018e+02
2.172419e+03,3.501587e+02
2.183026e+03,3.483148e+02
2.193633e+03,3.306501e+02
2.204239e+03,3.326944e+02
2.214846e+03,3.283135e+02
2.225452e+03,3.329854e+02
2.236059e+03,3.321253e+02
2.246666e+03,3.238814e+02
2.257272e+03,3.171928e+02
2.267879e+03,3.127280e+02
2.278485e+03,3.121206e+02
2.289092e+03,3.083037e+02
2.299698e+03,3.073039e+02
2.310305e+03,2.916095e+02
2.320911e+03,2.935818e+02
2.331518e+03,2.903267e+02
2.342125e+03,2.867010e+02
2.352731e+03,2.938188e+02
2.363338e+03,2.835161e+02
2.373944e+03,2.849427e+02
2.384551e+03,2.781217e+02
2.395157e+03,2.744241e+02
2.405764e+03,2.775686e+02
2.416370e+03,2.685022e+02
2.426977e+03,2.706408e+02
2.437584e+03,2.629154e+02
2.448190e+03,2.569444e+02
2.458797e+03,2.570880e+02
2.469403e+03,2.569256e+02
2.480010e+03,2.535209e+02
2.490616e+03,2.495277e+02
2.501223e+03,2.509833e+02
2.511830e+03,2.423277e+02
2.522436e+03,2.408876e+02
2.533043e+03,2.413148e+02
2.543649e+03,2.458986e+02
2.554256e+03,2.565990e+02
2.564863e+03,2.409178e+02
2.575469e+03,2.450064e+02
2.586075e+03,2.333498e+02
2.596682e+03,2.252007e+02
2.607289e+03,2.254693e+02
2.617895e+03,2.233254e+02
2.628502e+03,2.292608e+02
2.639108e+03,2.267024e+02
2.649715e+03,2.204662e+02
2.660322e+03,2.163142e+02
2.670928e+03,2.073598e+02
2.681535e+03,2.120707e+02
2.692141e+03,2.113587e+02
2.702748e+03,2.094430e+02
2.713354e+03,2.206618e+02
2.723961e+03,2.191815e+02
2.734568e+03,2.079591e+02
2.745174e+03,2.036327e+02
2.755781e+03,2.093481e+02
2.766387e+03,1.934170e+02
2.776994e+03,1.985180e+02
2.787600e+03,1.949199e+02
2.798207e+03,2.070193e+02
2.808813e+03,2.111595e+02
2.819420e+03,1.945349e+02
2.830027e+03,2.066315e+02
2.840633e+03,2.072414e+02
2.851240e+03,2.038289e+02
2.861846e+03,2.116680e+02
2.872453e+03,2.198074e+02
2.883059e+03,2.397168e+02
2.893666e+03,2.556651e+02
2.904273e+03,2.388364e+02
2.914879e+03,2.267420e+02
2.925486e+03,1.993814e+02
2.936092e+03,2.173181e+02
2.946699e+03,2.115652e+02
2.957305e+03,2.589779e+02
2.967912e+03,2.003140e+02
2.978519e+03,1.932392e+02
2.989125e+03,1.764597e+02
2.999732e+03,1.731027e+02
3.010338e+03,1.920345e+02
3.020945e+03,1.750850e+02
3.031552e+03,1.711180e+02
3.042158e+03,1.977456e+02
3.052764e+03,1.805767e+02
3.063371e+03,1.622486e+02
3.073978e+03,1.719272e+02
3.084584e+03,1.721452e+02
3.095191e+03,1.781106e+02
3.105797e+03,1.659495e+02
3.116404e+03,1.783960e+02
3.127010e+03,1.616319e+02
3.137617e+03,2.059098e+02
3.148224e+03,1.678432e+02
3.158830e+03,1.912231e+02
3.169437e+03,1.915550e+02
3.180043e+03,1.879691e+02
3.190650e+03,1.554657e+02
3.200292e+03,2.102951e+02