File: RAMAN_data/06022023_r1/blue frag5.CSV
1.995979e+02,3.259844e+03
2.102045e+02,3.270079e+03
2.208110e+02,3.274303e+03
2.314176e+02,3.285480e+03
2.420242e+02,3.274498e+03
2.526307e+02,3.286058e+03
2.632373e+02,3.306863e+03
2.738439e+02,3.291880e+03
2.844504e+02,3.321432e+03
2.950570e+02,3.297972e+03
3.056636e+02,3.301452e+03
3.162701e+02,3.299159e+03
3.268767e+02,3.308913e+03
3.374833e+02,3.300343e+03
3.480898e+02,3.322636e+03
3.586964e+02,3.300516e+03
3.693030e+02,3.300789e+03
3.799095e+02,3.304353e+03
3.905161e+02,3.290605e+03
4.011227e+02,3.274277e+03
4.117292e+02,3.276787e+03
4.223358e+02,3.273554e+03
4.329424e+02,3.272050e+03
4.435490e+02,3.251486e+03
4.541555e+02,3.255094e+03
4.647621e+02,3.240690e+03
4.753687e+02,3.228529e+03
4.859752e+02,3.225450e+03
4.965818e+02,3.224874e+03
5.071884e+02,3.208937e+03
5.177949e+02,3.222166e+03
5.284015e+02,3.210985e+03
5.390081e+02,3.191380e+03
5.496146e+02,3.195583e+03
5.602212e+02,3.174338e+03
5.708278e+02,3.156175e+03
5.814343e+02,3.162791e+03
5.920409e+02,3.164196e+03
6.026475e+02,3.139277e+03
6.132540e+02,3.123383e+03
6.238606e+02,3.129056e+03
6.344672e+02,3.117090e+03
6.450737e+02,3.103856e+03
6.556803e+02,3.078585e+03
6.662869e+02,3.088633e+03
6.768934e+02,3.183323e+03
6.875000e+02,3.123675e+03
6.981066e+02,3.083379e+03
7.087131e+02,3.049098e+03
7.193197e+02,3.057427e+03
7.299263e+02,3.061521e+03
7.405328e+02,3.097244e+03
7.511394e+02,3.005425e+03
7.617460e+02,3.005010e+03
7.723525e+02,3.055672e+03
7.829591e+02,2.969712e+03
7.935657e+02,2.948961e+03
8.041722e+02,2.951039e+03
8.147788e+02,2.925750e+03
8.253854e+02,2.915542e+03
8.359919e+02,2.886058e+03
8.465985e+02,2.882629e+03
8.572051e+02,2.866098e+03
8.678116e+02,2.839987e+03
8.784182e+02,2.853043e+03
8.890248e+02,2.828753e+03
8.996313e+02,2.819235e+03
9.102379e+02,2.794068e+03
9.208445e+02,2.773443e+03
9.314510e+02,2.768913e+03
9.420576e+02,2.758531e+03
9.526642e+02,2.755284e+03
9.632708e+02,2.761405e+03
9.738773e+02,2.728035e+03
9.844839e+02,2.692663e+03
9.950905e+02,2.713749e+03
1.005697e+03,2.677871e+03
1.016304e+03,2.673702e+03
1.026910e+03,2.670748e+03
1.037517e+03,2.662922e+03
1.048123e+03,2.667531e+03
1.058730e+03,2.655220e+03
1.069336e+03,2.635775e+03
1.079943e+03,2.651809e+03
1.090550e+03,2.643499e+03
1.101156e+03,2.637648e+03
1.111763e+03,2.609421e+03
1.122369e+03,2.607641e+03
1.132976e+03,2.599434e+03
1.143582e+03,2.596652e+03
1.154189e+03,2.572110e+03
1.164796e+03,2.571316e+03
1.175402e+03,2.558736e+03
1.186009e+03,2.572906e+03
1.196615e+03,2.608676e+03
1.207222e+03,2.683780e+03
1.217828e+03,2.560918e+03
1.228435e+03,2.535684e+03
1.239042e+03,2.525948e+03
1.249648e+03,2.514225e+03
1.260255e+03,2.546042e+03
1.270861e+03,2.637400e+03
1.281468e+03,2.658542e+03
1.292074e+03,2.578850e+03
1.302681e+03,2.533167e+03
1.313287e+03,2.529130e+03
1.323894e+03,2.550410e+03
1.334501e+03,2.616969e+03
1.345107e+03,2.529397e+03
1.355714e+03,2.502444e+03
1.366320e+03,2.471719e+03
1.376927e+03,2.455326e+03
1.387533e+03,2.442754e+03
1.398140e+03,2.444539e+03
1.408747e+03,2.424761e+03
1.419353e+03,2.426585e+03
1.429960e+03,2.417943e+03
1.440566e+03,2.432956e+03
1.451173e+03,2.407885e+03
1.461779e+03,2.384666e+03
1.472386e+03,2.395658e+03
1.482993e+03,2.392714e+03
1.493599e+03,2.396698e+03
1.504206e+03,2.408088e+03
1.514812e+03,2.441691e+03
1.525419e+03,2.669765e+03
1.536025e+03,2.641150e+03
1.546632e+03,2.459552e+03
1.557239e+03,2.383465e+03
1.567845e+03,2.367146e+03
1.578452e+03,2.329019e+03
1.589058e+03,2.318578e+03
1.599665e+03,2.313239e+03
1.610271e+03,2.294442e+03
1.620878e+03,2.310925e+03
1.631484e+03,2.290183e+03
1.642091e+03,2.253979e+03
1.652698e+03,2.268147e+03
1.663304e+03,2.241454e+03
1.673911e+03,2.238358e+03
1.684517e+03,2.225083e+03
1.695124e+03,2.217258e+03
1.705730e+03,2.241657e+03
1.716337e+03,2.218443e+03
1.726944e+03,2.201468e+03
1.737550e+03,2.213462e+03
1.748157e+03,2.200749e+03
1.758763e+03,2.197203e+03
1.769370e+03,2.197259e+03
1.779976e+03,2.195075e+03
1.790583e+03,2.186269e+03
1.801190e+03,2.192465e+03
1.811796e+03,2.191766e+03
1.822403e+03,2.186552e+03
1.833009e+03,2.173748e+03
1.843616e+03,2.176140e+03
1.854222e+03,2.165507e+03
1.864829e+03,2.156568e+03
1.875436e+03,2.168621e+03
1.886042e+03,2.154221e+03
1.896649e+03,2.161150e+03
1.907255e+03,2.149102e+03
1.917862e+03,2.128655e+03
1.928468e+03,2.128896e+03
1.939075e+03,2.142366e+03
1.949682e+03,2.136596e+03
1.960288e+03,2.113487e+03
1.970895e+03,2.139347e+03
1.981501e+03,2.116741e+03
1.992108e+03,2.108741e+03
2.002714e+03,2.100904e+03
2.013321e+03,2.110866e+03
2.023927e+03,2.115583e+03
2.034534e+03,2.098533e+03
2.045141e+03,2.081284e+03
2.055747e+03,2.063906e+03
2.066354e+03,2.092971e+03
2.076960e+03,2.081187e+03
2.087567e+03,2.076968e+03
2.098173e+03,2.068123e+03
2.108780e+03,2.061114e+03
2.119387e+03,2.053563e+03
2.129993e+03,2.041041e+03
2.140600e+03,2.048815e+03
2.151206e+03,2.037431e+03
2.161813e+03,2.035699e+03
2.172419e+03,2.018325e+03
2.183026e+03,2.010526e+03
2.193633e+03,2.017151e+03
2.204239e+03,2.010741e+03
2.214846e+03,2.007692e+03
2.225452e+03,1.998510e+03
2.236059e+03,1.981110e+03
2.246666e+03,1.952304e+03
2.257272e+03,1.967391e+03
2.267879e+03,1.975279e+03
2.278485e+03,1.952404e+03
2.289092e+03,1.933494e+03
2.299698e+03,1.937809e+03
2.310305e+03,1.915750e+03
2.320911e+03,1.929599e+03
2.331518e+03,1.903231e+03
2.342125e+03,1.893891e+03
2.352731e+03,1.876528e+03
2.363338e+03,1.858131e+03
2.373944e+03,1.862074e+03
2.384551e+03,1.854229e+03
2.395157e+03,1.848567e+03
2.405764e+03,1.842423e+03
2.416370e+03,1.826798e+03
2.426977e+03,1.833831e+03
2.437584e+03,1.804785e+03
2.448190e+03,1.813439e+03
2.458797e+03,1.813546e+03
2.469403e+03,1.779402e+03
2.480010e+03,1.780797e+03
2.490616e+03,1.773795e+03
2.501223e+03,1.752297e+03
2.511830e+03,1.749884e+03
2.522436e+03,1.738772e+03
2.533043e+03,1.749762e+03
2.543649e+03,1.720250e+03
2.554256e+03,1.719887e+03
2.564863e+03,1.721433e+03
2.575469e+03,1.711822e+03
2.586075e+03,1.694768e+03
2.596682e+03,1.704084e+03
2.607289e+03,1.680230e+03
2.617895e+03,1.662429e+03
2.628502e+03,1.660483e+03
2.639108e+03,1.659167e+03
2.649715e+03,1.617154e+03
2.660322e+03,1.621734e+03
2.670928e+03,1.629366e+03
2.681535e+03,1.620766e+03
2.692141e+03,1.574092e+03
2.702748e+03,1.588140e+03
2.713354e+03,1.583005e+03
2.723961e+03,1.598131e+03
2.734568e+03,1.604922e+03
2.745174e+03,1.600716e+03
2.755781e+03,1.539943e+03
2.766387e+03,1.538356e+03
2.776994e+03,1.545445e+03
2.787600e+03,1.568844e+03
2.798207e+03,1.529990e+03
2.808813e+03,1.542961e+03
2.819420e+03,1.531370e+03
2.830027e+03,1.543543e+03
2.840633e+03,1.485819e+03
2.851240e+03,1.512552e+03
2.861846e+03,1.503052e+03
2.872453e+03,1.516837e+03
2.883059e+03,1.513722e+03
2.893666e+03,1.506861e+03
2.904273e+03,1.526270e+03
2.914879e+03,1.502806e+03
2.925486e+03,1.476321e+03
2.936092e+03,1.458619e+03
2.946699e+03,1.462887e+03
2.957305e+03,1.522161e+03
2.967912e+03,1.470030e+03
2.978519e+03,1.451078e+03
2.989125e+03,1.393438e+03
2.999732e+03,1.432884e+03
3.010338e+03,1.407347e+03
3.020945e+03,1.423490e+03
3.031552e+03,1.436073e+03
3.042158e+03,1.477350e+03
3.052764e+03,1.431331e+03
3.063371e+03,1.430597e+03
3.073978e+03,1.375609e+03
3.084584e+03,1.395703e+03
3.095191e+03,1.413165e+03
3.105797e+03,1.405384e+03
3.116404e+03,1.425709e+03
3.127010e+03,1.399208e+03
3.137617e+03,1.476387e+03
3.148224e+03,1.409281e+03
3.158830e+03,1.415069e+03
3.169437e+03,1.464115e+03
3.180043e+03,1.412958e+03
3.190650e+03,1.460846e+03
3.200292e+03,1.503208e+03