File: RAMAN_data/06022023_r1/red fibre1.CSV
1.995979e+02,6.192914e+03
2.102045e+02,6.219460e+03
2.208110e+02,6.264295e+03
2.314176e+02,6.284358e+03
2.420242e+02,6.323697e+03
2.526307e+02,6.358427e+03
2.632373e+02,6.365017e+03
2.738439e+02,6.388756e+03
2.844504e+02,6.436894e+03
2.950570e+02,6.421914e+03
3.056636e+02,6.419000e+03
3.162701e+02,6.450756e+03
3.268767e+02,6.477872e+03
3.374833e+02,6.465041e+03
3.480898e+02,6.508345e+03
3.586964e+02,6.477359e+03
3.693030e+02,6.488805e+03
3.799095e+02,6.494411e+03
3.905161e+02,6.495542e+03
4.011227e+02,6.475994e+03
4.117292e+02,6.467401e+03
4.223358e+02,6.474925e+03
4.329424e+02,6.476614e+03
4.435490e+02,6.451650e+03
4.541555e+02,6.445744e+03
4.647621e+02,6.429654e+03
4.753687e+02,6.391386e+03
4.859752e+02,6.392556e+03
4.965818e+02,6.396996e+03
5.071884e+02,6.384474e+03
5.177949e+02,6.400516e+03
5.284015e+02,6.350377e+03
5.390081e+02,6.315929e+03
5.496146e+02,6.302103e+03
5.602212e+02,6.281682e+03
5.708278e+02,6.235415e+03
5.814343e+02,6.253198e+03
5.920409e+02,6.222366e+03
6.026475e+02,6.215275e+03
6.132540e+02,6.176773e+03
6.238606e+02,6.141177e+03
6.344672e+02,6.124574e+03
6.450737e+02,6.116388e+03
6.556803e+02,6.080859e+03
6.662869e+02,6.041167e+03
6.768934e+02,6.017363e+03
6.875000e+02,5.984891e+03
6.981066e+02,5.953109e+03
7.087131e+02,5.939196e+03
7.193197e+02,5.882487e+03
7.299263e+02,5.851397e+03
7.405328e+02,5.793204e+03
7.511394e+02,5.786783e+03
7.617460e+02,5.779940e+03
7.723525e+02,5.722834e+03
7.829591e+02,5.698132e+03
7.935657e+02,5.681157e+03
8.041722e+02,5.633530e+03
8.147788e+02,5.595554e+03
8.253854e+02,5.568845e+03
8.359919e+02,5.549056e+03
8.465985e+02,5.509301e+03
8.572051e+02,5.475307e+03
8.678116e+02,5.461146e+03
8.784182e+02,5.430036e+03
8.890248e+02,5.404606e+03
8.996313e+02,5.364139e+03
9.102379e+02,5.336712e+03
9.208445e+02,5.260382e+03
9.314510e+02,5.226676e+03
9.420576e+02,5.209453e+03
9.526642e+02,5.165911e+03
9.632708e+02,5.180065e+03
9.738773e+02,5.121653e+03
9.844839e+02,5.058795e+03
9.950905e+02,5.080741e+03
1.005697e+03,5.032192e+03
1.016304e+03,4.957115e+03
1.026910e+03,4.964542e+03
1.037517e+03,4.958810e+03
1.048123e+03,4.895975e+03
1.058730e+03,4.887909e+03
1.069336e+03,4.862064e+03
1.079943e+03,4.842585e+03
1.090550e+03,4.854762e+03
1.101156e+03,4.788667e+03
1.111763e+03,4.745803e+03
1.122369e+03,4.736444e+03
1.132976e+03,4.703635e+03
1.143582e+03,4.662530e+03
1.154189e+03,4.662275e+03
1.164796e+03,4.629218e+03
1.175402e+03,4.575740e+03
1.186009e+03,4.553237e+03
1.196615e+03,4.553807e+03
1.207222e+03,4.504406e+03
1.217828e+03,4.468443e+03
1.228435e+03,4.470742e+03
1.239042e+03,4.436813e+03
1.249648e+03,4.393817e+03
1.260255e+03,4.405866e+03
1.270861e+03,4.385369e+03
1.281468e+03,4.347551e+03
1.292074e+03,4.350973e+03
1.302681e+03,4.298963e+03
1.313287e+03,4.281243e+03
1.323894e+03,4.246944e+03
1.334501e+03,4.262167e+03
1.345107e+03,4.228435e+03
1.355714e+03,4.203867e+03
1.366320e+03,4.189780e+03
1.376927e+03,4.152512e+03
1.387533e+03,4.123051e+03
1.398140e+03,4.093175e+03
1.408747e+03,4.076820e+03
1.419353e+03,4.061302e+03
1.429960e+03,4.045265e+03
1.440566e+03,4.018413e+03
1.451173e+03,3.989612e+03
1.461779e+03,3.971712e+03
1.472386e+03,3.947770e+03
1.482993e+03,3.931598e+03
1.493599e+03,3.886195e+03
1.504206e+03,3.890853e+03
1.514812e+03,3.835484e+03
1.525419e+03,3.826899e+03
1.536025e+03,3.809193e+03
1.546632e+03,3.771450e+03
1.557239e+03,3.786004e+03
1.567845e+03,3.758087e+03
1.578452e+03,3.734286e+03
1.589058e+03,3.691559e+03
1.599665e+03,3.682369e+03
1.610271e+03,3.655749e+03
1.620878e+03,3.632017e+03
1.631484e+03,3.596822e+03
1.642091e+03,3.583173e+03
1.652698e+03,3.541221e+03
1.663304e+03,3.531791e+03
1.673911e+03,3.507453e+03
1.684517e+03,3.476531e+03
1.695124e+03,3.434334e+03
1.705730e+03,3.420526e+03
1.716337e+03,3.382367e+03
1.726944e+03,3.376426e+03
1.737550e+03,3.345688e+03
1.748157e+03,3.314200e+03
1.758763e+03,3.299113e+03
1.769370e+03,3.265777e+03
1.779976e+03,3.235222e+03
1.790583e+03,3.197292e+03
1.801190e+03,3.211878e+03
1.811796e+03,3.172295e+03
1.822403e+03,3.130140e+03
1.833009e+03,3.099872e+03
1.843616e+03,3.094642e+03
1.854222e+03,3.052883e+03
1.864829e+03,3.026117e+03
1.875436e+03,3.011739e+03
1.886042e+03,2.979771e+03
1.896649e+03,2.946740e+03
1.907255e+03,2.937796e+03
1.917862e+03,2.892783e+03
1.928468e+03,2.870153e+03
1.939075e+03,2.862399e+03
1.949682e+03,2.815118e+03
1.960288e+03,2.800009e+03
1.970895e+03,2.764623e+03
1.981501e+03,2.730904e+03
1.992108e+03,2.710405e+03
2.002714e+03,2.672376e+03
2.013321e+03,2.654463e+03
2.023927e+03,2.636813e+03
2.034534e+03,2.620768e+03
2.045141e+03,2.575656e+03
2.055747e+03,2.549975e+03
2.066354e+03,2.535265e+03
2.076960e+03,2.505772e+03
2.087567e+03,2.470899e+03
2.098173e+03,2.451225e+03
2.108780e+03,2.421059e+03
2.119387e+03,2.385401e+03
2.129993e+03,2.374213e+03
2.140600e+03,2.341886e+03
2.151206e+03,2.312296e+03
2.161813e+03,2.305005e+03
2.172419e+03,2.271512e+03
2.183026e+03,2.231601e+03
2.193633e+03,2.226964e+03
2.204239e+03,2.212714e+03
2.214846e+03,2.178520e+03
2.225452e+03,2.120019e+03
2.236059e+03,2.124518e+03
2.246666e+03,2.081163e+03
2.257272e+03,2.059717e+03
2.267879e+03,2.035022e+03
2.278485e+03,2.035240e+03
2.289092e+03,1.989493e+03
2.299698e+03,1.983094e+03
2.310305e+03,1.958827e+03
2.320911e+03,1.935019e+03
2.331518e+03,1.895809e+03
2.342125e+03,1.875120e+03
2.352731e+03,1.851847e+03
2.363338e+03,1.855122e+03
2.373944e+03,1.843972e+03
2.384551e+03,1.798841e+03
2.395157e+03,1.803858e+03
2.405764e+03,1.780885e+03
2.416370e+03,1.745922e+03
2.426977e+03,1.708947e+03
2.437584e+03,1.692981e+03
2.448190e+03,1.704552e+03
2.458797e+03,1.687617e+03
2.469403e+03,1.635669e+03
2.480010e+03,1.631888e+03
2.490616e+03,1.627013e+03
2.501223e+03,1.597319e+03
2.511830e+03,1.594368e+03
2.522436e+03,1.572896e+03
2.533043e+03,1.561826e+03
2.543649e+03,1.554871e+03
2.554256e+03,1.543155e+03
2.564863e+03,1.521189e+03
2.575469e+03,1.503733e+03
2.586075e+03,1.486014e+03
2.596682e+03,1.469277e+03
2.607289e+03,1.451796e+03
2.617895e+03,1.429752e+03
2.628502e+03,1.435713e+03
2.639108e+03,1.410028e+03
2.649715e+03,1.394498e+03
2.660322e+03,1.392034e+03
2.670928e+03,1.383991e+03
2.681535e+03,1.362558e+03
2.692141e+03,1.354122e+03
2.702748e+03,1.324635e+03
2.713354e+03,1.342543e+03
2.723961e+03,1.300463e+03
2.734568e+03,1.301671e+03
2.745174e+03,1.309340e+03
2.755781e+03,1.295425e+03
2.766387e+03,1.248351e+03
2.776994e+03,1.252783e+03
2.787600e+03,1.244560e+03
2.798207e+03,1.238585e+03
2.808813e+03,1.241135e+03
2.819420e+03,1.226044e+03
2.830027e+03,1.216385e+03
2.840633e+03,1.216246e+03
2.851240e+03,1.212319e+03
2.861846e+03,1.188729e+03
2.872453e+03,1.190065e+03
2.883059e+03,1.175786e+03
2.893666e+03,1.229479e+03
2.904273e+03,1.162609e+03
2.914879e+03,1.183592e+03
2.925486e+03,1.178555e+03
2.936092e+03,1.146078e+03
2.946699e+03,1.151245e+03
2.957305e+03,1.209075e+03
2.967912e+03,1.144149e+03
2.978519e+03,1.120639e+03
2.989125e+03,1.089206e+03
2.999732e+03,1.094340e+03
3.010338e+03,1.081387e+03
3.020945e+03,1.083993e+03
3.031552e+03,1.071597e+03
3.042158e+03,1.068120e+03
3.052764e+03,1.058725e+03
3.063371e+03,1.070089e+03
3.073978e+03,1.038503e+03
3.084584e+03,1.041636e+03
3.095191e+03,1.054766e+03
3.105797e+03,1.046707e+03
3.116404e+03,1.070738e+03
3.127010e+03,1.003670e+03
3.137617e+03,1.082691e+03
3.148224e+03,1.047290e+03
3.158830e+03,1.089839e+03
3.169437e+03,1.030969e+03
3.180043e+03,1.042183e+03
3.190650e+03,1.030813e+03
3.200292e+03,1.096355e+03